"Wavelength_A__P_"	"Impatiens_glandulifera_A__Er_1"	"Impatiens_glandulifera_A__Lr_2"	"Impatiens_glandulifera_A__Lr_3"	"Impatiens_glandulifera_A__Lr_4"	"Impatiens_glandulifera_A__Er_5"	"Cirsium_arvense_A__P_1"	"Convolvulus_sepium_A__P_1"	"Convolvulus_sepium_A__P_2"	"Convolvulus_sepium_A__P_3"	"Convolvulus_sepium_A__P_4"	"Rubus_caesius_A__P_1"	"Rubus_caesius_A__P_2"	"Saponaria_officinalis_A__P_1"	"Trifolium_repens_A__P_1"	"Trifolium_repens_A__P_2"
178.796	486.43	326.36	184.05	605.43	400.11	411.09	478.73	344.68	318.89	513.24	555.32	406.79	460.86	457.69	595.93
179.181	486.43	326.36	184.05	605.43	400.11	411.09	478.73	344.68	318.89	513.24	555.32	406.79	460.86	457.69	595.93
179.565	486.43	326.36	184.05	605.43	400.11	411.09	478.73	344.68	318.89	513.24	555.32	406.79	460.86	457.69	595.93
179.95	201.08	40.05	-517.47	126.88	219.62	404.84	-45.16	582.53	439.52	-44.89	46.51	16.13	-139.25	175.81	194.62
180.335	138.65	97.89	67.61	57.85	122.41	134.31	92.61	143.48	101.07	37.58	39.01	70.69	67.64	92.41	56.42
180.719	-11.35	-1.97	28.14	43.52	-73.13	8.08	-33.38	-85.75	-41.56	-35.48	-58.31	-54.07	-50.93	-79.64	-25.5
181.104	146.76	122.05	69.7	101.77	110.85	83.4	51.47	115.08	149.46	99.46	153.09	98.04	159.23	109.14	106.29
181.488	6.29	32.93	-91.67	-68.53	-91.32	68.18	90.91	-38.75	87.82	11.71	68.82	-0.23	-5.94	102.45	24.48
181.873	22.19	6.49	34.9	4.58	45.8	52.59	68.66	-10.17	8.83	24.9	67.59	-1.29	60.75	54.48	21.99
182.257	-18.03	-1.18	-5.12	39.07	13.69	-18.4	-21.8	40.18	44.36	31.37	-10.92	-6.79	25.33	5.24	42.43
182.642	-122.92	-164.68	-168.84	68.19	80.3	-175.21	-122.06	-21.28	13.97	-69.27	-70.13	-64.47	-89.83	-112.46	113.75
183.026	178.51	195.2	278.15	279.08	145.63	178.94	103.72	371.85	256.95	154.23	220.99	231.23	354.87	139.68	238.68
183.411	108.71	118.3	66.18	83.1	66.76	76.57	69.08	118.36	49.39	193.23	103.64	146.55	130.77	96.44	93.2
183.795	82.18	33.77	118.42	33.1	14.67	12.38	68.18	97.07	-0.11	47.77	20.47	40.31	50.57	135.29	3.25
184.179	147.68	59.06	2.86	29.1	-54.57	69.2	290.4	-12.93	124.85	154.1	83.2	184.83	103.25	54.64	54.18
184.564	-36.48	2.67	-32.44	-37.22	-56.64	55.46	-18.36	-62.97	25.62	63.96	-17.68	-49.38	-48.26	-59.43	30.52
184.948	-491.4	-321.24	-706.72	-341.94	-636.29	-532.8	-118.28	135.22	-579.84	-483.6	-856.72	11.83	-1106.99	-60.75	-678.49
185.332	92.92	69.2	79.27	128.69	61.02	93.71	55.92	120.42	76.59	63.22	95.33	45.54	76.86	70.39	116.12
185.716	-3.47	2.82	9.38	6.94	31.52	-25.36	38.78	35.03	22.76	46.25	-18.01	12.45	26.63	37.55	18.37
186.1	-18.06	94.54	-77.29	65.23	88.34	37.6	157.95	15.7	-37.94	-11.39	138.21	209.43	-38.41	52.96	-26.15
186.484	18.98	28.02	-1.49	20.35	36.49	4.69	-3.02	34.82	27.27	47.65	21.85	30.53	72.32	38.9	37.75
186.868	78.98	30.93	77.96	107.28	35.51	65.63	176.28	168.8	172.3	25.27	202.9	13.21	88.81	68.06	198.11
187.252	49.04	30.73	55.24	62.04	57.8	63.05	42.33	52.1	56.65	40.06	31.76	62.37	49.06	55.4	14.41
187.636	137.9	54.04	72.29	60.21	38.7	85.27	138.97	85.17	111.18	112.37	30.58	68.33	99.88	47.95	48.48
188.02	16.16	33.68	16.28	24.36	-7.74	-4.38	93.36	55.51	57.67	40.82	3.49	15.49	97.38	8.98	29.32
188.404	35.49	27.33	34.07	33.69	24.67	33.96	66.8	50.33	54.13	48.67	24.92	26.58	102.02	29.17	51.68
188.788	39.16	21.25	15.3	16.15	7.3	5.45	65.74	34.94	33.94	38.99	13.34	19.64	89.69	2.6	37.08
189.172	28.2	20.21	25.4	38.88	-1.46	21.87	85.55	42.47	54.3	50.59	19.87	25.39	100.06	12.6	37.16
189.556	39.78	41.52	40.23	37.47	25.69	13.6	83.68	54.31	71.35	43.92	25.63	30.56	108.03	22.4	51.73
189.94	41.06	35.26	23.19	39.41	16.73	13.62	64.7	50.32	64.34	48.94	21.29	30.46	87.63	16.36	44.58
190.323	33.61	9.28	14.98	13.21	11.82	2.02	64	15.36	62	26.82	-13	7.68	98.64	1.69	43.11
190.707	56.02	49.03	48.58	53.42	39.89	34.99	83.37	65.06	69.06	49.72	43.1	44.17	99.97	34.79	61.31
191.091	30.65	7.68	29.68	28.18	10.31	-2.62	70.87	22.22	42.66	38.93	0.56	16.1	94.2	1.1	44.18
191.474	33.04	28.96	15.54	19.01	5.23	-5.37	80.57	38.09	56.29	36.96	3.25	12.85	102.41	-12.14	38
191.858	38.81	11.37	4.48	16.71	-4.8	-1.73	74.31	28.81	49.14	42.25	-9.33	18.28	103.49	-20.06	31.68
192.241	44.98	39.11	34.47	34	7.68	26.11	72.65	34.98	56.67	41.84	18.53	27.92	96.25	20.31	39.2
192.625	30.26	10.14	16.71	17.74	9.48	11.34	64.66	27.23	34.37	33.41	7.64	7.56	76.76	-2.19	41.48
193.008	29.98	34.09	48.29	33.54	15.29	16.98	99.18	41.66	85.89	52.62	12.32	35.21	125.58	8.25	41.03
193.392	47.39	48.29	38.33	40.08	32.58	34.24	75.4	47.35	45.16	48.87	25.67	29.47	86.32	26.06	54.76
193.775	30.16	12.18	16.44	15.87	1.74	-6.11	55.09	21.69	33.47	28.94	14.98	8.15	76.8	3.5	36.3
194.159	19.85	3.2	1.51	28.43	-1.67	-4.47	56.82	32.63	38.42	25.72	2.37	1.33	77.17	-2.17	30.47
194.542	39.44	28.94	31.16	35.58	19.34	0.09	75.92	30.26	59.87	31.99	8.11	-0.9	99.35	-2.55	31.1
194.925	35.48	14.21	8.09	20.64	-7.08	6.08	64.34	28.26	44.22	40.42	-1.42	9.07	86.45	-8.94	32.03
195.309	41.1	32.24	38.61	34.2	22.72	21.61	68.49	45.88	51.94	46.69	32.73	37.61	85.45	32.9	55.66
195.692	30.28	31.14	22.02	24.83	19.13	13.28	61.13	42.64	48.95	36.97	20.29	21.13	75.56	17.18	39.85
196.075	24.48	20.97	4.71	16.18	4.85	-3.48	59.29	23.47	32.95	34.56	13.55	3.32	78.11	-7.45	35.37
196.458	26.7	17.51	18.22	26.82	7.63	14.51	64.72	27.39	48.25	26.81	10.86	8.89	80.36	-14.98	44.85
196.841	13.64	26.36	16.14	13.91	-0.95	-6.76	97.37	34.87	42.36	27.4	1.56	-6.24	79.36	-15.73	26.61
197.225	29.53	5.63	5.51	4.66	-13.59	-1.14	70.29	18.76	39.42	38.86	-3.73	3.33	58.88	-8.17	34.19
197.608	43.69	28.44	23.56	27.94	3.77	-1.08	79.45	47.89	48.88	48.75	19.58	19.78	86.5	2.34	39.87
197.991	33.94	33.78	21	26.64	2.3	23.36	80.01	42.09	55.86	45.59	19.08	22.3	101.07	4.03	49.54
198.374	23.32	10.83	12.94	19.14	7.87	6.94	45.27	24.65	38.65	42.67	17.21	8.88	74.68	-0.45	34.06
198.757	-4.82	-0.4	4.52	11.82	-16.86	-19.05	61.41	28.08	59.03	21.27	3.18	-7.24	94.5	-20.11	27.98
199.139	29.61	14.9	17.59	19.77	21.03	7.22	71.99	26.82	53.99	25.49	8.75	5	82.4	9.03	38.86
199.522	45.93	29.02	32.6	32.44	9.62	28.95	72.43	46.57	50.48	55.92	22.97	31.45	99.7	17.14	47.83
199.905	32.58	20.62	17.73	36.05	-0.1	22.12	88.07	44.31	50.44	56.1	17.13	9.37	67.9	9.36	38.92
200.288	32.92	25.05	20.91	33.61	16.87	19.63	77.76	48.02	52.9	38.47	13.08	22.91	96.72	4.21	52.99
200.671	12.27	-19.15	-5.33	-7.81	-1.88	-3.14	71.25	29.42	32.32	7.55	6.77	-7.84	111.44	-30.33	24.45
201.054	36.95	41.67	30.79	36.19	24.98	30.28	76.95	52.59	61.36	42.2	28.36	30.94	98.17	19.76	55.34
201.436	37.92	15.97	33.34	23.63	8.04	18.98	76.68	50.11	54.35	42.05	34.82	17.15	100.71	2.35	47.51
201.819	18.74	4.57	0.91	4.65	-6.37	-9.52	58.73	24.06	26.43	16.99	2.17	-8.89	76.84	-26.44	28.48
202.202	25.79	22.79	12.13	9.59	4.62	6.09	64.86	45.69	47.39	39.29	6.12	15.66	87.96	-11.59	46
202.584	5.06	19.55	10.28	23.63	-9.98	-1.41	63.25	33.61	37.27	25.49	-6.97	5.99	74.42	-12.29	37.54
202.967	41.83	30.4	29	36.58	18.44	18.26	88.76	54.43	53.35	41.17	20.24	36.99	97.25	6.13	44.85
203.349	20.92	16.23	14.92	11.73	-3.37	3.51	50.01	16.54	26.25	25.98	6.9	4.9	66.9	-3.03	24.8
203.732	28.12	18.35	14.23	18.49	14.35	14.8	64.59	40.07	50.64	40.44	20.82	26.3	87.36	5.55	45.47
204.114	17.02	10.56	7.53	17.99	5.8	8.46	48.51	19.97	30.57	25.15	2.47	16.61	74.24	-4.29	18.07
204.497	31.85	17	19.88	28.79	19.67	17.96	72.34	39.58	46.27	49.83	22.26	21.33	85.25	6.17	36.6
204.879	22.79	12.91	7.93	14.53	4.95	3.1	54.15	32.57	33.33	29.31	1.2	15.62	70.48	4.37	13.14
205.261	20.5	20.74	18.04	16.43	6.47	10.41	55.99	35.58	26.8	35.58	8.18	21.63	65.56	5.57	28
205.644	43.14	27.58	26.49	30.32	13.62	24.48	61.87	37.31	47	36.24	12.08	21.05	80.99	13.42	38.59
206.026	23.62	0.15	15.29	11.49	-6.69	-3.39	59.03	32.75	46.65	18.43	3.92	6.79	80.88	-10.49	26.35
206.408	47.8	13.65	28.34	24.41	13.67	12.61	81.83	43.35	55.39	44.22	14.48	33.42	92.78	11.67	37.94
206.791	37.17	23.96	20.04	22.29	10.65	16.84	56.13	36.19	46.5	32.36	9.37	26.52	74.77	12.54	51.9
207.173	52.54	49.24	43.08	33.63	31.38	29.35	74.8	59.93	57.73	58.94	39.55	38.77	90.65	25.19	54.72
207.555	18.27	15.42	7.75	12.23	6.05	-7.43	64.02	25.1	29.59	21.69	10.08	12.36	68.25	4.25	24.51
207.937	33.79	24.84	22.75	16.76	14.65	19.3	62.02	37.1	49.51	34.77	23.97	10.99	70.98	6.34	34.98
208.319	14.34	0.44	4.24	-9.03	-9.64	-3.57	55.72	12.22	33.76	17.82	-3.35	-0.26	78.44	-20.48	18.22
208.701	24.81	24.14	23.03	22.66	17	15.14	70.39	30.26	45.3	37.93	13.43	23.21	70.07	17.14	36.41
209.083	23.63	19.27	27.25	11.07	14.21	1.63	83.44	30.12	52.71	33.46	19.14	12.51	82.22	4.06	37.54
209.465	39.76	28.17	19.98	32.94	17.97	18.38	77.06	47.05	53.25	61.63	21.7	33.91	102.77	7.6	46.24
209.847	32.84	30.33	20.73	31.4	4.64	19.21	91.64	40.6	61.81	41.07	9.45	16.07	115.75	-17.49	42.82
210.229	30.43	11	16.22	10.55	-9.05	3.44	65.95	30.29	39.44	32.09	3.81	5.02	78	2.68	36.25
210.611	12.67	-3.47	8.02	1.67	-15.18	-9.32	65.59	23.93	35.28	34.43	-5.34	8.22	80.54	-6.56	24.35
210.993	19.22	17.51	6.46	13.92	3.67	-0.01	63.7	19.71	34.89	39.81	7.09	-9.62	78.93	-5.41	25.97
211.374	51.56	51.02	47.11	56.47	41.37	44.57	80.71	71.36	73.13	66.08	46.1	43.34	100.16	42.7	63.46
211.756	18.1	18.41	7.21	13.95	-2.19	-18.54	58.1	26.31	34.96	28.38	-1.62	-6.88	91.79	-8.53	33.95
212.138	16.87	-2.35	5.94	-6.34	-8.62	-5.24	52.53	17.29	12.38	22.89	-14.41	-3.27	89.8	-13.06	20.89
212.52	35.7	21.16	28.11	26.15	15.55	25.68	74.22	42.48	59.6	40.92	27.6	35.35	88.01	12.04	42.57
212.901	35.34	27.58	33.58	38.58	26.32	15.68	69.77	41.32	46.44	46.54	25.43	23.24	80.03	20.68	43.64
213.283	37.45	29.27	26.07	33.75	20.89	21.27	56.08	41.42	47.51	42.33	27.22	23.99	66.89	20.46	44.81
213.664	26.55	16.74	20.22	19.89	12.49	8.89	68.06	33.93	49.61	33.75	17.64	12	92.7	-1.19	52.77
214.046	13.53	3.15	9.91	5.7	-6.8	-13.67	47.52	25.48	42.71	22.23	1.3	-5.34	59.36	-12.22	18.93
214.427	33.17	18.49	20	19.12	12.53	6.86	60.04	30.45	52.38	45.56	17.24	16.11	77.01	9.07	31.68
214.809	32.39	27.95	26.09	16.08	20.24	8.12	55.56	33.49	45.36	42.28	13.22	16.27	70.72	8.54	29.58
215.19	23.01	11.25	15.9	14.44	-1.74	0.08	56	31.54	51.6	35	7.56	6.96	79.49	-5.89	29.99
215.572	43.43	32	37.5	37.6	28.85	32.17	83.06	54.76	67.82	50.48	24.29	38.92	105.82	24.92	48.92
215.953	41.39	33.7	38.64	28.31	18.33	26.86	74.19	44.91	48.35	52.22	25.67	30.11	83.32	22.11	38.34
216.334	34.4	16.49	26.79	25.66	16.94	12.02	71.86	32.71	41.84	42.32	14.32	17.53	82.18	9.26	35.93
216.716	14.49	10.05	13.05	14.38	0.18	6.92	51.46	17.09	36.18	27.47	6.05	11.91	62.71	0.83	28.69
217.097	29.12	27.38	26.62	18.17	13.29	13.93	62.91	43	57.29	36.95	7.83	32.26	87.72	9.04	41.41
217.478	23.66	17.84	0.45	13.23	-2.33	-0.57	53.54	22.06	37.68	27.91	8.98	-0.05	65.39	-1.33	32.73
217.859	25	16.09	20.05	19.08	10.83	9.58	48.12	22.02	35.61	33.69	17.3	14.24	65.98	7.38	26.21
218.241	31.09	19.41	21.5	22.24	11.96	13.74	65.15	41.75	41.96	28.92	10.39	8.61	71.55	4.7	26.56
218.622	31.47	21.59	25.35	15.73	26.91	22.78	74.17	39.34	46.86	36.44	23.55	21.29	82.77	14.46	37.22
219.003	25	18.26	25.72	18.85	18.22	23.08	57.37	34.88	48.3	35.76	24.7	18.53	77.96	6.95	37.5
219.384	24.11	14.54	12.29	9.38	6.29	3.49	48.93	23.56	37.25	30.23	8.91	8.92	61.64	-0.12	25.86
219.765	15.28	2.15	10.24	10.18	-13.93	-0.43	54.21	28.18	26.72	24.74	3.23	4.5	68.13	-1.46	23.36
220.146	25.77	12.68	14.55	13.09	9.63	-5.09	48.29	27.8	34.43	27.02	12	5.04	64.24	-1.47	27.81
220.527	7.46	8.58	13.12	8.51	-5.54	-3.35	41.64	20.17	27.75	24.15	7.4	11.61	52.83	5.09	19.78
220.908	14.99	7.14	11.89	17.86	10.63	-1.48	38.7	23.59	29.23	24.34	7.83	14.61	52	1.77	25.07
221.288	15.48	14.07	13.11	12.32	3.66	2.95	42.23	20.01	28.6	21.75	13.69	9.31	49.69	1.53	21.54
221.669	25.15	17.58	9.53	12.2	4.29	0.63	39.95	16.84	27.1	23.78	2.03	0.16	46.75	-1.13	22.12
222.05	19.72	15.99	20.88	17.88	13.65	7.67	43.49	23.01	31.77	29.72	12.5	11.12	44.21	5.52	27.07
222.431	20.13	11.84	10.11	13.08	3.74	1.91	38	20.73	21.79	18.34	6.05	8.39	42.63	1.25	16.8
222.811	8.61	-1.85	-4.05	1.81	-8.77	-10.9	37.97	11.32	20.28	11.43	-5.32	2.19	43.75	-16.27	15.06
223.192	13.8	8.09	9	9.9	-3.23	-0.65	34.4	20.14	20.35	15.7	1.34	9.44	43.23	1.86	15.23
223.573	25.15	15.89	12.89	17.17	6.47	7.04	42.81	21.42	29.91	21.6	10.99	13.68	43.9	10.99	21.92
223.953	8.59	5.1	4.92	5.97	-4.35	-4.88	27.97	7.41	14.33	13.51	-1.03	3.32	30.64	-6.34	7.54
224.334	18.1	10.59	14.25	15.17	11.64	8.92	35.58	16.61	23.98	21.77	12.69	11.62	36.53	4.07	20.1
224.714	16.39	6.07	12.02	11.64	3.82	8.25	35.55	16.37	19.45	16.58	6.57	10.91	33.71	3.38	13.03
225.095	18.18	12.54	12.45	17.06	8.06	5.53	32.51	17.2	21.79	22.84	10.03	11.72	33.8	3.77	15.47
225.475	15.9	12.09	12.86	13.72	6.41	8.44	28.48	14.96	20.92	17.99	8.77	8.33	31.72	5.73	14.23
225.856	11.15	4.46	5.58	8.68	0.46	3.68	27.19	13.53	14.45	11.9	5.41	6.68	22.2	0.23	11.16
226.236	12.25	6.83	9.01	7.24	2.67	3.13	23.73	8.7	13.12	10.48	3.58	5.32	24.47	-0.89	8.7
226.617	12.01	6.23	7.27	9.69	2.43	5.73	21.21	9.87	11.91	11.87	3.64	6.85	19.47	4.63	8.53
226.997	10.38	6.2	7.38	9.29	3.08	3.6	17.89	8.36	10.25	9.8	6.23	6.37	17.37	3.06	7.95
227.377	7.94	5.03	3.91	6.4	0.59	1.97	16.38	4.86	4.96	6.83	4.08	3.35	12.94	-1.1	4.97
227.757	6.52	5.27	3.85	5.64	0.96	1.52	12.34	3.27	4.39	6.07	2.59	3.52	9.07	1.14	3.25
228.138	6.15	3.14	3.04	4.41	0.14	0.54	11.88	1.77	3.03	4.49	2.12	2.76	6.02	0.45	1.69
228.518	7.37	3.56	3.74	5.04	1.3	1.3	11.53	2.54	3.29	4.89	2.38	3.54	6.78	1.15	2.36
228.898	7.04	3.46	3.77	5.54	0.9	1.07	11.38	2.08	2.89	4.54	2.8	3.3	6.09	0.95	1.08
229.278	6.99	3.16	3.75	5.56	0.52	0.84	12.78	1.75	2.44	4.19	2.63	3	6.45	0.46	1.3
229.658	9.98	5.45	5.51	8.32	2.39	2.86	16.28	4.21	4.62	6.59	3.97	4.81	9.83	2.85	3.64
230.038	7.97	4.57	3.94	6.5	0.54	0.23	14.98	2.33	3.91	5.76	2.32	2.75	8.2	0.2	2.44
230.418	9.37	4.86	4.78	7.14	1.74	1.49	15.41	4.1	5.72	6.88	3.96	4.5	11	1.91	3.95
230.798	9.35	4.49	4.87	7.72	2.5	2.17	15.85	4.08	5.22	6.26	3.11	4.45	10.34	1.58	3.9
231.178	9.44	6.14	6.78	8.3	3.45	3.44	16.68	5.2	6.21	8.13	4.43	5.95	11.3	2.32	4.05
231.558	8.81	4.59	3.13	6.27	-0.91	-0.07	14.96	2.46	3.42	4.9	2.39	3.73	9.93	-0.93	2.42
231.938	12.87	7.33	7.14	9.55	3.66	3.67	20.58	6.46	9.17	10.37	5.52	5.83	14.24	4.26	5.38
232.318	11.95	6.61	6.03	8.36	1.98	2.36	19	5.14	7.86	9.07	6.11	5.46	12.97	3.73	4.95
232.697	11.18	6.73	5.61	8.44	2.58	1.92	19.42	6.23	7.15	9.36	5.35	6.29	14.21	2.97	6.5
233.077	8.26	3.53	4.28	6.2	0.68	0.55	16.19	3.58	5.16	4.95	3	3.56	10.42	0.02	3.53
233.457	10.15	5.26	5.87	8.39	2.87	2.87	16.11	5.7	6.04	7.53	4.12	5.09	10.97	2.62	3.96
233.836	7.73	3.28	3.83	5.14	-0.02	-0.13	13.97	2.45	3.37	4.3	1.6	2.52	7.21	0.43	1.75
234.216	9.01	4.83	4.97	6.38	0.92	1.11	14.63	2.88	3.77	6.2	3.67	4.04	9.41	0.6	2.69
234.596	11.39	5.96	6.49	9.33	2.36	2.36	17.64	4.83	5.88	7.59	4.63	5.78	11.73	2.32	4.07
234.975	9.64	5.71	4.54	7.55	0.33	0.75	16.79	2.73	4.59	6.53	3.75	4.68	9.75	1.56	2.64
235.355	12.07	5.76	5.86	7.56	2.42	2.42	17.07	5.19	6	7.5	4.94	4.9	11.2	2.24	4.36
235.734	9.47	4.49	3.55	7.14	0.95	0.98	15.54	2.74	4.24	5.84	2.44	4.15	10.4	0.34	2.53
236.114	10.84	5.25	5.24	8.06	2.84	2.11	16.75	4.92	5.18	7.16	4.52	5.12	10.72	1.93	3.54
236.493	10.12	5.02	5.25	8.41	0.66	1	16.14	3.89	5.02	5.96	3.18	4.14	10.08	1.73	2.29
236.873	9.49	5.32	4.28	6.94	1.05	0.98	16.81	2.94	4.49	6.09	3	4.4	10.96	0.77	2.12
237.252	10.53	4.86	4.49	7.19	0.77	0.95	16.37	3.29	4.26	6.12	3.97	3.74	10.45	1.43	3.32
237.631	9.69	3.98	5.11	6.28	0.47	0.23	15.06	2.82	4.41	5.18	3.31	2.88	9.81	-0.86	2.55
238.01	10.99	5.59	6.51	7.77	1.75	1.35	16.45	4.6	5.52	7.09	4.85	4.35	11.11	1.89	3.85
238.39	9.64	4.27	4.43	8.01	0.5	0.86	16.22	3.35	3.62	6.01	3.21	4.07	10.11	0.93	3
238.769	10.46	5.52	5.42	8.44	1.58	1.79	16.32	3.67	4.95	6.83	3.5	4.77	10.51	1.93	2.92
239.148	9.02	3.62	4.46	6.67	0.23	0.16	13.83	2.39	3.06	5.18	2.62	3.44	8.35	0.23	2.64
239.527	9.81	5.16	5.52	7.21	1.92	1.88	14.99	2.87	3.75	5.79	3.91	4.44	8.24	1.92	2.36
239.906	9.52	4.98	5.21	7.58	1.13	1.31	14.09	2.72	4.39	5.49	3.56	4.2	7.61	1.61	1.93
240.285	9.16	4.06	4.39	6.5	1	1.55	13.47	2.05	3.4	4.98	3.08	4.01	6.72	0.91	1.14
240.664	8.98	4.18	4.42	6.45	1.17	1.24	12.64	2.02	2.29	4.42	2.63	3.28	6.34	0.97	1.36
241.043	8.82	4.05	4.56	6.03	0.96	0.71	12.44	1.59	1.92	4.51	2.79	3.9	5.46	1.22	1.25
241.422	9.29	4.71	4.81	6.54	1.59	1.43	12.29	2.12	2.64	4.99	3.23	4.21	6.02	1.85	1.46
241.801	8.52	3.74	3.78	5.99	0.78	0.71	11.69	1.17	1.62	4	2.78	3.43	4.82	1.06	0.58
242.18	9.1	4.12	4.41	6.13	1	0.88	11.96	1.23	1.8	4.29	2.8	3.67	4.77	1.02	0.49
242.559	10.23	5.03	5.23	7.18	1.69	1.77	13.52	1.88	2.68	5.23	3.85	4.77	6.03	1.77	1.35
242.938	10.57	4.88	5.39	7.71	1.66	1.35	14.63	1.8	2.47	5.32	3.54	4.64	6.07	1.44	1.1
243.316	11.48	5.37	5.86	8.5	2.03	1.81	15.66	2.11	2.99	6.13	3.92	5.14	7	1.82	1.72
243.695	11.68	5.83	6.53	8.96	2.17	2.18	16.78	2.74	3.76	6.5	4.56	5.13	8.19	2.3	2.19
244.074	11.39	5.45	6.21	8.31	1.55	1.72	15.74	2.94	3.64	6.13	3.99	5.01	8.15	2.09	2.66
244.452	10.54	5.3	5.38	7.69	1.19	1.02	14.75	2.29	3.21	5.37	3.7	4.24	7.54	1.16	1.77
244.831	9.87	4.81	4.7	6.88	1.36	0.92	13.31	2.52	2.74	5.08	3.34	3.54	6.61	1.3	1.45
245.21	9.27	4.66	4.57	6.66	1.14	1.29	12.98	2.07	2.6	5	3.2	3.83	6.1	1.27	1.4
245.588	8.88	4.32	4.22	6.01	1.3	1.15	11.66	1.58	2.22	4.47	2.93	3.73	5.47	1.62	1.04
245.967	8.45	4.21	4.14	5.88	1.26	1.17	11.07	1.31	1.76	3.93	2.68	3.63	4.7	1.2	0.96
246.345	8.28	3.81	3.99	5.72	1.09	0.96	10.48	1.08	1.63	3.59	2.6	3.34	4	1.16	0.54
246.723	8.8	4.15	4.23	6.14	1.16	1.16	11.17	1.13	1.6	3.91	2.84	3.62	4.27	1.37	0.46
247.102	9.76	4.32	4.57	6.41	1.14	1.17	12.14	1.22	1.58	4.15	3.05	3.9	4.47	1.26	0.5
247.48	10.59	4.9	4.93	7.03	1.07	1.23	13.63	1.13	1.57	4.65	3.32	4.09	5.08	1.46	0.38
247.859	10.89	5.01	5.27	7.2	1.26	1.21	13.9	1.24	1.82	4.89	3.39	4.1	5.25	1.4	0.52
248.237	10.78	5.11	5.2	7.16	1.4	1.38	13.84	1.52	2	4.96	3.43	4.28	5.81	1.78	0.85
248.615	11	5.1	5.28	7.3	1.31	1.42	14.09	1.8	2.34	5.22	3.73	4.39	5.91	1.73	1.08
248.993	11.42	5.55	5.54	7.83	1.38	1.56	15.05	1.57	2.42	5.32	3.71	4.59	6.7	1.62	1.11
249.371	12.15	5.62	5.96	8.14	1.77	1.56	15.64	2.56	2.78	5.98	3.99	4.89	7.42	1.64	1.64
249.75	12.13	6.27	6.96	9.09	2.42	2.48	16.47	3.03	3.99	6.71	4.59	5.43	8.82	2.07	2.62
250.128	11.15	5.59	5.73	7.71	1.74	2.08	15.26	2.88	3.35	6.47	3.74	5.26	7.86	2.25	2.2
250.506	10.24	4.54	4.63	6.77	1.24	1.08	13.66	1.94	2.5	4.95	2.77	3.94	6.94	0.8	0.92
250.884	10.36	5.13	5.25	7.02	1.87	1.98	14.06	2.25	3.39	5.15	3.82	4.55	7.07	1.62	1.66
251.262	9.68	4.18	4.26	6.21	0.99	0.79	12.09	1.91	1.95	4.62	2.88	3.52	5.6	1.11	0.91
251.64	9.63	4.54	4.38	6.23	1.02	1.03	12.22	1.41	2.25	4.5	3.04	3.97	5.75	1.26	0.98
252.018	9.95	4.57	4.94	6.87	1.09	1.08	12.85	1.53	2.1	4.59	3.21	4.18	5.61	1.32	0.85
252.395	11.14	5.23	5.5	7.34	1.4	1.22	14.15	1.59	2.41	5.15	3.46	4.37	6.37	1.56	0.96
252.773	11.82	5.28	5.72	7.61	1.1	0.94	15.44	1.6	2.3	5.61	3.57	4.9	6.89	0.99	0.52
253.151	12.89	6.71	6.15	8.85	2.61	2.43	16.78	3.37	4.06	6.79	4.69	5.76	8.46	2.37	2.38
253.529	11.72	5.81	5.33	8.26	1.3	1.48	15.8	2.76	3.22	6.06	3.8	4.47	8.46	1.62	1.73
253.907	11.79	6.13	5.69	7.83	1.46	1.57	15.46	2.66	3.72	5.92	3.52	4.83	8.46	1.45	2.05
254.284	11.88	6.05	5.5	8.12	2.06	2.18	15.52	2.87	4.46	6.72	4.09	5.28	8.82	1.87	2.44
254.662	10.72	5.01	5.1	7.88	0.84	0.89	15.38	2.48	3.45	5.68	4.02	4.16	8.64	1.67	1.66
255.04	12.23	5.55	5.99	7.85	1.86	2.36	15.49	3.16	4.29	6.31	4.45	4.46	9.14	1.61	2.52
255.417	11.7	5.94	6.13	8.6	1.97	2.25	15.71	3.13	3.81	6.44	4.5	5.53	9.4	2.2	2.75
255.795	9.85	4.5	4.26	6.35	0.74	1.17	13.73	2.41	3.07	5.4	3.07	4.27	7.55	1.12	1.48
256.172	11.27	5.85	5.66	7.7	1.9	2.14	14.66	2.91	3.68	5.81	3.86	4.87	8.06	1.47	2.34
256.55	10.87	4.81	5.42	7.09	0.89	1.7	13.62	2.22	2.96	5.63	3.55	4.79	7.38	1.65	2.32
256.927	10.21	4.84	5.06	7.05	1.21	1.03	13.41	2.42	2.85	4.95	3.61	4.25	6.96	1.2	1.66
257.304	10.25	4.48	4.97	6.7	0.95	1.17	13.51	1.72	2.4	5.26	3.15	4.04	6.92	1.49	1.32
257.682	10.33	4.77	5.1	7.01	1.56	1.31	13.41	2.27	2.47	4.97	3.4	4.15	6.54	1.64	1.8
258.059	9.15	3.99	3.97	5.86	0.54	0.51	11.85	0.93	1.7	4.01	2.53	3.27	5.1	0.8	0.32
258.436	9.06	4.23	4.55	6.19	1.17	1.01	11.54	1.64	1.91	4.34	3.09	3.63	5.14	1.4	0.8
258.814	8.74	4.02	4.26	5.82	1	1.01	10.72	1.25	1.75	3.88	2.94	3.53	4.53	1.39	0.78
259.191	8.57	3.97	3.89	5.76	0.96	0.97	10.32	1.23	1.41	3.76	2.76	3.51	4.2	1.25	0.64
259.568	8.78	4	4.07	5.79	0.87	0.87	10.67	0.89	1.24	3.66	2.58	3.56	4.1	1.26	0.32
259.945	9.69	4.32	4.49	6.36	1.09	1.04	11.64	1.11	1.47	4.12	2.98	3.86	4.51	1.44	0.4
260.322	11.02	4.84	5.13	7.07	1.29	1.16	13.33	1.25	1.67	4.54	3.52	4.26	5.18	1.54	0.54
260.699	11.55	5.48	5.7	7.68	1.26	1.3	14.52	1.51	1.92	5.01	3.74	4.59	5.86	1.67	0.69
261.076	12.2	5.85	5.97	7.96	1.5	1.47	15.18	2.15	2.43	5.5	4	5.08	6.57	1.91	1.41
261.453	11.26	5.2	5.53	7.5	1.76	1.55	14.26	2.29	2.41	5.45	3.94	4.66	6.58	1.72	1.34
261.83	10.78	5.01	5.08	7.32	1.37	1.34	13.58	2.02	2.43	5.17	3.32	4.31	6.68	1.77	1.46
262.207	10.68	5.14	5.47	7.34	1.48	1.62	13.36	2.33	2.47	5.2	3.82	4.66	6.63	1.77	1.47
262.584	10.48	5.02	5.29	7.05	1.3	1.26	13.55	2.06	2.47	4.99	3.1	4.55	6.65	1.71	1.4
262.961	10.92	5.02	5.34	7.21	1.18	1.22	14.12	2.13	2.46	5.65	3.52	4.43	7.01	1.45	1.11
263.338	11.28	5.42	5.56	7.45	1.31	1.45	14.28	2.08	2.84	5.81	3.78	4.67	7.17	1.52	1.14
263.715	11.31	5.93	5.72	7.82	2.01	1.63	14.86	2.52	3.2	5.68	4.02	4.79	7.83	2.04	2.09
264.091	10.54	5.38	5.54	7.43	1.84	1.45	13.94	2.3	2.95	5.86	3.85	4.08	7.59	1.44	2.03
264.468	9.91	5.21	5.22	7.23	1.32	1.54	13.93	2.39	2.95	5.15	3.34	4.38	7.26	1.32	1.58
264.845	10.81	5.5	5.9	7.28	1.64	1.98	13.97	2.91	3.37	5.9	3.84	4.7	7.53	1.86	2.36
265.221	10.49	5.08	5.36	7.32	1.7	1.7	13.3	2.28	3.2	5.27	3.85	4.5	7.06	1.63	1.83
265.598	9.53	4.23	4.23	6.61	1.12	0.77	12.39	1.64	2.43	4.4	2.92	3.84	6.23	0.88	0.96
265.974	9.95	4.94	4.72	6.89	1.63	1.22	12.51	1.94	2.6	4.79	3.43	4.22	6.14	1.73	1.23
266.351	9.73	4.71	4.58	6.59	1.19	1.09	12.41	1.61	2.15	4.79	3.22	4.03	5.86	1.54	0.88
266.727	9.92	4.7	4.79	6.9	1.51	1.4	12.59	1.73	2.19	4.78	3.27	4.05	5.87	1.36	1.08
267.104	10.26	4.87	4.97	6.91	1.28	1.38	13.11	1.87	2.34	4.78	3.4	4.19	6.31	1.53	1.26
267.48	10.58	5.14	5.29	7.25	1.44	1.52	13.15	2.03	2.79	4.94	3.45	4.68	6.45	1.64	1.53
267.856	10.42	5.01	5.45	7.42	1.55	1.47	13.28	2.2	2.61	5.16	3.7	4.41	6.64	1.76	1.16
268.233	10.44	5.41	5.29	7.29	1.62	1.2	13.72	1.95	2.5	5.12	3.75	4.45	6.73	1.83	1.53
268.609	10.61	5.38	5.39	7.16	1.67	1.6	13.47	2.33	2.98	5.64	3.34	4.75	6.77	1.91	1.8
268.985	10.47	5.23	4.96	7.23	1.46	1.23	13.01	2.17	2.57	5.29	3.64	4.28	6.27	1.8	1.5
269.362	9.91	4.63	4.88	6.66	1.38	1.07	13.25	1.87	2.23	4.94	3.33	3.82	6.14	1.26	1.4
269.738	10.01	4.51	5.08	6.77	1.01	1.02	12.81	1.77	2.44	4.61	3.28	3.92	6.14	1.15	1.02
270.114	9.97	4.83	5.06	6.53	1.29	1.38	12.46	1.86	2.43	4.74	3.17	3.91	6.2	1.4	1.27
270.49	9.76	4.76	4.98	6.76	1.31	1.36	12.13	1.88	2.23	4.52	3.26	4.15	5.76	1.69	1.28
270.866	9.9	4.7	4.72	6.44	1.24	1.1	11.57	1.5	1.99	4.48	3.36	4.01	5.72	1.69	1.12
271.242	9.97	4.67	4.92	6.51	1.31	1.21	11.94	1.61	2.14	4.57	3.23	4.03	5.5	1.59	1.09
271.618	10.13	4.93	5.04	6.78	1.19	1.19	12.33	1.73	2.27	4.72	3.36	4.22	5.72	1.48	1.06
271.994	10.33	5.13	5.23	6.9	1.45	1.56	12.4	1.93	2.38	4.87	3.57	4.43	5.7	1.87	1.24
272.37	10.06	4.82	5.14	6.98	1.25	1.09	12.42	1.71	2.21	4.52	3.44	4.36	5.58	1.69	1.02
272.746	10.4	5.13	5.08	6.72	1.14	1.26	12.4	1.76	2.24	4.65	3.26	4.48	5.67	1.67	1.12
273.122	10.58	4.99	5.2	7.04	1.48	1.2	13.16	1.61	2	4.81	3.43	4.2	5.92	1.44	1.03
273.497	10.69	4.88	5.14	6.99	0.95	0.91	13.25	1.75	1.98	4.76	3.08	4.12	6.04	1.26	0.83
273.873	10.42	4.69	4.61	6.68	0.71	0.65	12.89	1.39	2.02	4.56	2.91	3.96	6.05	1.21	0.66
274.249	10.96	5.49	5.72	7.12	1.51	1.51	13.12	2.18	2.71	5.33	3.83	4.56	7.06	1.83	1.52
274.625	10.4	4.83	5.14	6.79	0.77	0.74	12.65	1.47	2	4.69	3.09	4.05	6.13	1.32	1.04
275	11.28	5.56	5.45	7.41	1.95	1.91	13.26	2.41	2.68	5.34	4.03	4.8	6.77	2.25	1.94
275.376	10.91	5.22	5.19	7.03	1.51	1.18	12.74	2.07	2.62	4.98	3.38	4.42	6.32	1.55	1.62
275.751	10.93	5.27	5.39	6.91	1.33	1.08	12.72	1.8	2.49	4.74	3.53	4.24	6.34	1.73	1.27
276.127	11.21	5.08	5.43	7.17	1.2	1.36	12.76	1.77	2.52	4.88	3.38	4.26	6.58	1.51	1.15
276.502	11.08	5.33	5.25	7.23	1.21	1.36	12.63	1.78	2.41	4.77	3.47	4.17	6.58	1.6	1.3
276.878	10.55	4.69	5.26	6.81	1.03	0.84	12.68	1.62	2.05	4.5	3.16	3.94	6.13	1.17	0.92
277.253	10.93	5.22	5.28	6.9	1.19	1.19	12.91	1.82	2.58	4.61	3.23	4.13	6.34	1.31	1.22
277.629	11.29	5.55	5.54	7.38	1.23	1.11	13.19	1.61	2.55	4.89	3.38	4.19	6.76	1.48	1.21
278.004	11.7	5.79	5.73	7.59	1.78	1.66	13.37	1.96	2.61	5.01	3.7	4.59	7.08	1.72	1.74
278.379	11.48	5.91	6	7.32	1.59	0.98	13.41	2.15	2.62	5	3.61	4.53	6.97	1.8	1.67
278.755	11.41	5.09	5.43	7.12	1.38	1.13	12.87	2	2.63	4.72	3.26	4.16	6.69	1.06	1.13
279.13	11.43	5.34	5.5	7.37	1.41	1.29	12.76	1.92	2.52	4.79	3.52	4.32	6.64	1.43	1.38
279.505	11.73	5.58	5.67	7.15	1.25	1.6	12.89	2.14	2.76	5.23	3.66	4.63	6.93	1.78	1.4
279.88	11.43	5.49	5.44	7.13	1.45	1.2	12.47	1.8	2.44	4.74	3.41	4.41	6.23	1.52	1.29
280.255	11.37	5.1	5.11	6.67	0.87	0.97	12.35	1.61	2.15	4.43	3.04	4.01	6.15	1.25	1
280.63	10.98	4.98	5.25	6.59	0.73	0.83	12.01	1.66	1.91	4.36	2.8	3.87	6	1.11	0.84
281.005	11.31	5.41	5.51	6.91	1.39	1.15	12.11	1.9	2.25	4.39	3.41	4.45	6.07	1.67	1.26
281.38	11.79	5.52	5.79	7.26	1.33	1.8	12.15	2	2.45	4.53	3.32	4.51	6.33	1.78	1.16
281.755	11.07	5.09	5.17	6.85	1.03	0.89	11.69	1.62	2.21	4.14	3.05	3.99	5.67	1.25	0.72
282.13	11.43	5.35	5.53	6.89	1.12	0.83	11.91	1.55	1.9	4.15	3.09	4.04	5.73	1.29	0.8
282.505	11.93	5.16	5.51	7.08	1.03	1.08	12.66	1.71	2.15	4.51	3.06	4.26	5.98	1.46	0.75
282.88	12.26	5.6	5.7	7.23	1.23	0.98	12.61	1.75	2.19	4.75	3.23	4.14	6.31	1.36	1.03
283.255	12.19	5.66	5.65	7.15	1.33	1.32	12.51	1.7	2.37	4.7	3.44	4.32	6.43	1.43	1.23
283.63	11.48	4.94	5.16	6.54	0.66	0.75	11.74	1.36	1.86	3.98	2.85	3.86	5.77	0.99	0.66
284.004	11.6	5.5	5.58	7.3	1.17	1.28	11.55	1.72	2.07	4.57	3.16	4.1	5.87	1.21	1.11
284.379	11.66	5.54	5.57	7.02	1.11	1.15	11.47	1.62	2.04	4.24	3.11	4.19	5.92	1.45	1.15
284.754	11.91	5.44	5.32	6.67	1.18	1.03	11.39	1.4	1.96	4.44	3.01	3.72	5.35	1.56	1.06
285.128	11.91	5.62	5.46	6.83	1.4	1.14	11.38	1.63	2.13	4.27	3.2	4.26	5.58	1.48	1
285.503	11.83	5.54	5.7	7.1	1.34	1.24	11.21	1.66	2.01	4.26	3.1	4.16	5.61	1.53	0.87
285.878	12.12	5.58	5.67	6.89	1.08	1.02	11.23	1.48	1.78	4.03	3.27	4.02	5.47	1.33	0.91
286.252	12.47	5.79	5.7	7.03	1.18	0.91	11.71	1.36	1.73	4.1	3.06	3.94	5.44	1.08	0.69
286.627	12.91	5.97	6.1	7.5	1.13	1.03	12.39	1.49	2.01	4.6	3.26	4.39	6.11	1.3	0.9
287.001	13.36	6.17	6.51	7.77	1.49	1.53	12.9	1.85	2.21	4.72	3.54	4.58	6.74	1.65	1.32
287.375	13.65	6.28	6.2	7.83	1.39	1.17	12.66	1.83	2.33	4.64	3.5	4.53	6.67	1.7	1.41
287.75	13.39	6.07	6.46	7.63	1.32	1.52	12.3	1.76	2.53	4.67	3.66	4.38	6.68	1.57	1.33
288.124	12.98	5.53	5.93	6.96	1	1.02	11.83	1.44	2	4.45	3.09	4.04	6.24	1.25	0.95
288.498	12.75	5.67	5.8	7.02	0.97	1.11	11.54	1.66	1.95	4.27	3.04	4.05	6.24	1.38	0.86
288.873	13.32	6.25	6.42	7.56	1.45	1.37	11.83	2.01	2.28	4.51	3.63	4.48	6.62	1.92	1.43
289.247	13.21	5.98	6.11	7.41	1.27	1.16	11.63	1.52	2.08	4.08	3.17	4.33	6.22	1.41	1.11
289.621	13.51	6.2	6.09	7.43	1.56	1.43	11.63	1.77	2.41	4.43	3.3	4.47	6.27	1.66	1.07
289.995	13.37	6.22	6.13	7.24	1.06	1.13	11.36	1.34	2.01	4.37	2.99	4.2	6	1.25	0.99
290.369	13.57	6.02	6.1	7.24	1.3	1.03	11.46	1.66	1.85	3.87	2.97	3.9	6.01	1.11	0.72
290.743	13.9	6.26	6.3	7.45	1.08	1.17	11.89	1.58	1.9	4.28	3.2	4.15	6.27	1.31	0.96
291.117	14	6.11	6.57	7.62	1.04	1.04	12.04	1.3	1.98	3.79	3.08	4.2	6.6	1.05	0.62
291.491	14.82	6.66	7	7.95	1.94	1.52	12.67	2.11	2.24	4.68	3.41	4.84	7.48	1.6	1.37
291.865	15.42	7.09	7.18	8.4	1.84	1.78	13.45	2.3	2.98	5.33	3.62	4.99	7.42	2.27	1.78
292.239	14.62	6.5	6.95	8.22	1.73	1.43	12.45	2.01	2.37	4.62	3.43	4.62	7.2	1.55	1.41
292.613	14.15	6.18	6.22	7.59	1.34	1	12.08	1.62	2.25	4.4	3.12	4.25	7.24	1.28	1.4
292.987	14.26	6.54	6.47	7.78	1.36	1.25	12	1.95	2.31	4.21	3.2	4.3	6.95	1.69	1.35
293.361	14.49	6.67	6.52	7.8	1.64	1.31	11.72	1.89	2.44	4.47	3.12	4.2	7.09	1.54	1.33
293.734	14.95	6.96	7.13	8.27	1.93	1.76	11.89	2.04	2.64	4.55	3.81	4.68	7.17	1.59	1.44
294.108	15.34	6.76	7.11	8.34	1.92	1.61	12.07	2.16	2.56	4.67	3.45	4.73	7.2	2.07	1.59
294.482	15.06	6.5	6.79	7.78	1.59	1.27	12.03	1.72	2.33	4.36	3.3	4.38	7.1	1.54	1.22
294.856	15.54	6.76	7.18	8.01	1.46	1.37	11.83	1.86	2.36	4.3	3.44	4.16	6.9	1.71	1.37
295.229	15.3	6.95	7.02	8.05	1.65	1.45	11.8	1.84	2.06	4.34	3.39	4.59	6.96	2.02	1.45
295.603	15.04	6.64	6.87	7.79	1.48	1.49	11.4	1.71	2.05	4.27	3.09	4.32	6.84	1.67	0.97
295.976	14.73	6.55	6.89	7.76	1.68	1.35	11.12	1.72	2.07	4.17	3.22	4.44	6.41	1.63	1.14
296.35	14.62	6.5	6.48	7.6	1.46	1.12	10.32	1.55	1.88	3.74	3.13	3.93	5.95	1.35	0.86
296.723	14.85	6.29	6.56	7.41	1.31	1.04	10.37	1.33	1.52	3.94	2.9	4.13	6.16	1.33	0.71
297.097	15.35	6.48	6.87	7.55	1.51	1.07	10.81	1.25	1.73	3.81	3.02	4.1	6.28	1.4	0.8
297.47	16.14	6.85	6.81	7.81	1.38	1.02	11.38	1.19	1.62	3.84	3.05	4.2	6.48	1.47	0.68
297.843	16.55	7.12	7.29	8.08	1.53	1.06	11.43	1.34	1.71	4.05	3.18	4.37	6.8	1.52	0.64
298.217	17.11	7.23	7.5	8.21	1.39	1.09	12.03	1.41	1.87	4.26	3.31	4.42	7.1	1.29	0.69
298.59	17.1	7.45	7.71	8.63	1.63	1.49	12.46	1.77	2.1	4.47	3.42	4.59	7.61	1.66	1.07
298.963	16.65	7.37	7.5	8.18	1.42	0.98	11.94	1.55	2.03	4.29	3.29	4.25	7.29	1.61	1.03
299.336	16.87	6.99	7.18	8.01	1.51	0.93	11.75	1.35	1.76	4.28	3.09	4.28	7.66	1.39	0.95
299.709	16.84	7.18	7.46	8.09	1.41	1.37	11.84	1.79	2.11	4.42	3.33	4.69	7.59	1.53	0.91
300.083	16.58	7.16	7.51	8.38	1.51	1.39	11.96	1.98	2.24	4.34	3.39	4.62	7.49	1.72	1.34
300.456	16.62	6.78	6.94	7.85	1.24	0.86	11.82	1.62	1.93	3.9	2.59	3.99	7.08	1.1	0.55
300.829	16.72	6.9	6.91	7.82	1.45	0.65	11.72	1.37	1.96	3.87	2.91	4.15	7.28	1.28	0.81
301.202	17.01	7.29	7.11	8.2	1.31	1.33	11.82	1.8	2.19	4.19	3.22	4.28	7.55	1.58	1.16
301.575	17	7.2	7.39	8.24	1.58	1.08	11.82	1.39	2.16	3.83	3.17	4.12	7.61	1.55	0.95
301.948	17.08	7.03	7.25	8.04	1.44	1	11.95	1.39	1.76	3.93	3.14	4.07	7.41	1.08	0.93
302.32	17.97	7.79	8.29	8.74	2.21	1.53	12.47	2.3	2.6	4.97	3.77	4.9	8.38	1.87	1.56
302.693	17.44	7.43	7.85	8.38	1.63	0.95	12.03	1.57	2.24	4.31	3.25	4.15	7.73	1.58	1.12
303.066	17.54	7.9	7.89	8.41	2.05	1.61	12.23	2.39	2.42	4.56	3.58	4.61	8.06	1.73	1.47
303.439	17.06	7.16	7.35	7.85	1.7	0.91	11.46	1.56	2.3	3.94	2.97	4.03	7.24	1.41	0.97
303.812	17.14	7.54	7.7	8.4	1.81	1.19	11.68	1.93	2.33	4.42	3.47	4.56	7.56	1.23	1.26
304.184	17.22	7.8	7.58	8.31	1.73	1.25	11.74	1.7	2.32	4.15	3.54	4.43	7.44	1.48	1.02
304.557	17.36	7.38	7.45	8.11	1.52	0.98	11.54	1.66	1.82	4.21	3.32	4.4	7.47	1.38	0.7
304.93	17.81	7.99	7.85	8.4	1.55	1.15	11.98	1.91	2.29	4.29	3.12	4.43	7.75	1.49	1
305.302	17.55	7.47	7.77	8.27	1.42	1.12	11.74	1.79	1.98	4.36	3.24	4.46	7.93	1.45	1.16
305.675	17.57	7.78	7.5	8.47	1.44	0.95	11.67	1.59	2.01	4.19	3.07	4.01	7.59	1.46	1.06
306.047	18.18	8.12	8.3	8.86	2.11	1.41	12.49	2.28	2.69	4.66	3.28	4.99	8.37	1.73	1.58
306.42	18.22	7.72	7.86	8.45	1.86	1.11	12.34	1.78	2.38	4.51	3.3	4.4	8.29	1.45	1.54
306.792	18.57	8.13	8.42	9.04	2.14	1.38	12.78	2.51	2.67	4.87	3.8	4.65	8.55	1.83	1.67
307.164	18.56	8.05	8.51	9.04	2.49	1.58	12.95	2.23	3.05	4.87	4.02	4.81	8.5	2.27	1.9
307.537	17.91	7.61	7.99	8.54	1.81	1.14	12.06	1.93	2.42	4.16	3.45	4.2	7.77	1.79	1.29
307.909	18.11	7.72	7.9	8.86	1.9	1.38	11.9	2.2	2.35	4.42	3.31	4.15	7.95	1.62	1.47
308.281	17.82	7.96	8.08	8.57	2.06	1.51	11.78	1.98	2.73	4.54	3.53	4.66	7.62	1.65	1.88
308.654	17.9	7.63	7.73	8.06	1.72	1.14	11.53	1.52	2.26	4.01	3.08	4.25	7.25	1.67	0.99
309.026	17.47	7.29	7.51	7.92	1.55	0.71	11.11	1.2	1.99	3.78	2.69	4.12	6.77	1.39	0.42
309.398	17.8	7.45	8	8.24	1.76	1.15	11.31	1.39	1.98	4.03	3.18	4.41	7.04	1.56	0.69
309.77	18.29	8.24	8.21	8.53	2.04	1.7	11.41	1.87	2.56	4.19	3.61	4.62	7.21	2.09	1.3
310.142	18.33	7.73	7.86	7.92	1.75	1.08	11.31	1.54	1.99	3.96	3.31	4.18	6.84	1.51	1.07
310.514	18.15	7.56	7.84	7.96	1.81	1.18	11.13	1.34	1.89	3.87	3.09	4.17	6.68	1.5	0.86
310.886	18.12	7.36	7.53	7.93	1.64	0.77	10.72	1.19	1.66	3.71	2.97	4.15	6.51	1.26	0.78
311.258	18.12	7.72	7.71	8.16	1.66	0.75	10.95	1.33	1.61	3.8	2.99	4.2	6.47	1.32	0.75
311.63	19.03	7.82	8	8.54	1.65	0.97	11.23	1.43	1.88	3.99	3.28	4.45	6.72	1.62	0.98
312.002	19.3	8.09	8.7	8.57	1.84	1.23	11.92	1.61	2	4.2	3.2	4.35	6.99	1.61	1.01
312.374	20.27	8.5	8.64	8.95	1.92	1.32	12.5	1.75	2.37	4.41	3.46	4.8	7.47	1.93	1.18
312.746	20.25	8.51	9.11	9.22	2.24	1.55	12.85	2.2	2.55	4.45	3.63	4.67	7.91	1.78	1.61
313.117	19.47	8.47	8.43	8.57	1.84	1.18	12.15	2.04	2.08	4.19	3.34	4.44	7.62	1.76	1.33
313.489	18.38	7.22	7.53	7.39	1.18	0.24	11.16	1.14	1.46	3.65	2.39	3.47	6.64	0.66	0.3
313.861	18.84	7.7	7.93	8.41	1.5	0.79	11.38	1.45	2.05	3.9	3.12	3.9	7.2	0.89	0.75
314.232	18.92	7.64	7.61	7.99	1.22	0.21	10.97	1.44	1.69	3.52	2.68	3.55	6.68	1.02	0.48
314.604	19.28	8.31	8.37	8.49	2.05	1.41	12	2.04	2.69	4.29	3.16	4.63	7.45	1.65	1.33
314.976	20.07	8.29	8.83	8.71	1.85	1.14	12.07	1.91	2.18	4.34	3.4	4.27	7.25	1.55	1.35
315.347	20.27	8.6	9.14	9.11	1.96	1.42	12.43	2.21	2.69	4.77	3.87	5.11	7.88	1.77	1.56
315.719	19.6	8.15	8.63	8.66	1.88	0.9	12.01	1.57	2.43	4.23	3.28	4.46	7.18	1.6	1.38
316.09	20.47	8.67	8.92	9.29	1.85	1.24	12.24	2.13	2.17	4.61	3.63	4.59	7.89	2.03	1.51
316.462	19.16	7.72	8.34	8.1	1.32	0.53	11.7	0.93	1.71	3.65	2.67	3.75	7.07	1.05	0.77
316.833	19.62	8.52	8.54	8.5	1.89	1.21	12.37	1.74	2.33	4.64	3.09	4.55	7.68	1.67	1.3
317.204	20.13	8.38	8.57	8.24	1.45	0.81	12.7	1.57	2.2	4.36	3.39	3.99	7.92	1.48	0.86
317.576	19.82	8.26	8.25	8.47	1.63	0.92	12.27	1.38	2.11	4.19	3.05	3.98	8	1.2	0.76
317.947	19.88	8.5	8.82	8.77	1.4	0.88	12.44	1.54	2.33	4.18	3.26	4.14	7.34	1.31	0.7
318.318	20.13	8.54	8.57	8.49	1.85	0.96	12.85	1.53	2.48	4.18	3.21	4.25	7.66	1.44	0.97
318.689	20.18	8.34	8.33	8.61	1.68	0.96	12.01	1.68	2.31	4.13	3.18	4.03	7.31	1.54	1.27
319.06	19.48	8.21	8.68	8.29	1.58	1.05	12.27	1.78	2.08	3.95	3.14	4.3	7.73	1.36	1.32
319.432	20.33	8.81	8.87	8.83	2.11	1.44	12.64	2.06	2.68	4.51	3.71	4.39	7.81	1.73	1.54
319.803	20.38	8.11	8.14	8.55	0.95	0.3	12.33	1.32	1.5	3.56	2.77	3.67	7.21	0.94	0.49
320.174	20.75	8.75	8.47	8.65	1.72	1.11	12.71	1.92	2.46	4.43	3.39	4.71	7.99	1.79	1.38
320.545	20.3	8.35	8.54	8.17	1.68	0.6	12.55	1.67	1.98	4.41	3.22	4.4	7.73	1.31	1.07
320.916	19.68	8.15	7.85	8.36	1.24	0.64	11.89	1.14	2.25	3.44	2.87	3.82	7.02	0.99	0.41
321.286	20.1	8.5	8.46	8.41	1.82	0.77	12.43	1.58	2.34	4.49	2.85	4.24	7.36	1.11	1.16
321.657	19.55	7.8	7.77	7.91	1.25	0.52	11.62	1.33	1.77	3.85	2.44	3.33	6.99	0.96	0.59
322.028	20.03	8.33	8.38	8.44	1.82	1.03	12.45	2.02	2.46	4.38	3.28	4.59	7.62	1.44	1.07
322.399	19.35	7.95	8.28	8.07	1.38	0.71	11.6	1.56	1.81	3.49	2.99	3.54	6.95	1.34	0.82
322.77	19.6	8.11	8.61	8.16	1.76	0.89	11.34	1.65	2.19	4.17	2.82	3.78	7.25	1.6	1.02
323.14	19.79	7.79	7.89	7.54	1.06	0.18	10.82	1.12	1.68	3.15	2.25	3.7	6.84	0.96	0.3
323.511	19.34	7.65	7.82	7.46	0.91	0.32	10.74	0.94	1.58	3.41	2.88	3.4	6.34	0.71	0.32
323.882	19.34	7.68	7.89	7.6	1.17	0.39	11.05	0.88	1.63	3.35	2.35	3.73	6.25	1.11	0.39
324.252	19.33	7.94	8.06	7.73	1.52	0.28	11.09	0.94	1.72	3.55	2.8	3.68	6.28	1.02	0.58
324.623	19.33	7.79	7.81	7.66	0.95	0.03	10.75	0.93	1.62	3.27	2.6	3.4	6.02	0.82	0.37
324.994	20.23	7.6	8.04	8.33	1.53	0.74	11.64	1.25	1.75	3.69	2.89	3.87	7.11	1.31	0.79
325.364	19.52	7.47	7.72	7.36	1.03	0.01	10.97	0.9	1.22	3.43	2.36	3.44	6.36	0.7	0.25
325.734	19.1	7.57	7.89	7.48	0.82	0.31	10.81	0.82	1.49	3.34	2.61	3.46	6.14	0.58	0.17
326.105	19.6	7.85	8.02	7.74	1.58	0.27	11.22	1.17	2.04	3.43	2.64	3.98	6.33	1.16	0.71
326.475	19.3	7.9	7.65	7.68	0.87	0.13	11.06	0.88	1.37	3.17	2.44	3.29	6	0.5	0.23
326.846	20.01	8.38	8.11	7.8	1.06	0.3	11.47	1.18	1.54	3.11	2.84	3.64	6.87	0.78	0.72
327.216	20.23	8.41	8.79	7.92	1.33	0.45	11.88	1.56	1.65	3.66	2.95	3.93	7.12	1.24	0.53
327.586	20.14	8.03	7.8	7.83	0.91	0.2	11.73	1.07	1.33	3.32	2.39	3.37	6.57	0.92	0.04
327.956	20.08	8.32	8.57	8.26	1.73	0.94	11.58	1.57	2.07	4.1	3.32	4.15	7.13	1.73	0.74
328.327	19.84	8.04	8.19	8.15	1.19	0.32	11.79	1.24	2.05	3.52	3.31	3.74	6.94	1.12	0.52
328.697	20.18	8.54	8.32	8.01	1.58	0.77	12.18	1.64	2.15	4.11	3.05	3.98	7.26	1.63	1.12
329.067	19.64	7.86	8.38	7.95	1.04	0.65	11.8	0.92	1.87	3.46	2.53	3.75	7.05	1.24	0.58
329.437	19.61	7.62	7.73	7.78	1.17	0.3	11.36	1	1.89	3.31	2.39	3.6	6.79	0.56	0.14
329.807	19.72	8.05	8.21	8.02	1.33	0.4	11.68	1.02	1.61	3.73	2.55	3.78	7.08	0.77	0.79
330.177	19.8	8.24	8.23	8.07	1.25	0.49	11.56	1.25	2.07	3.4	2.9	3.58	7.25	1.01	0.73
330.547	19.91	7.91	8.44	8.06	1.14	0.41	11.95	1.37	2.24	3.85	3.17	4.04	7.45	1.09	0.53
330.917	19.77	8.04	8.6	8.05	1.4	0.8	12	2.02	1.82	3.62	3.26	4.12	7.18	1.2	0.79
331.287	19.34	7.67	7.81	7.4	0.88	0.2	11.09	1.23	1.42	3.42	2.51	3.18	6.51	0.85	-0.01
331.656	20.01	7.75	8.27	7.79	1.45	0.62	11.42	1.42	1.72	3.44	3.18	3.79	7.03	1.14	0.15
332.026	20.19	7.85	8.55	7.79	1.29	0.59	11.68	1.22	1.67	3.85	3.25	3.84	7.08	1.1	0.78
332.396	19.7	7.86	8.39	7.54	1.53	0.31	11.26	1.29	1.69	3.4	3.11	3.78	6.82	1.39	0.55
332.766	19.66	8.19	8.4	7.73	1.62	1	11.72	1.52	2.09	4.05	2.95	4.09	7.09	1.21	0.81
333.135	19.14	7.5	7.53	7.51	0.88	0.31	11.04	1.08	1.25	3.15	2.32	3.18	6.44	1.01	0.32
333.505	19.33	7.43	7.64	7.32	0.59	-0.5	10.9	0.34	1.03	2.77	2.36	2.87	6.01	0.21	-0.29
333.875	19.52	8.55	8.64	7.9	1.48	0.97	11.64	1.42	1.98	4.08	3.14	3.98	6.74	1.36	0.69
334.244	19.91	8.17	8.28	8.3	1.72	0.59	11.36	1.25	2.04	3.83	3	4.12	7.25	1.58	0.83
334.614	18.48	7.49	7.26	6.99	0.66	0.15	10.77	0.75	0.99	3.3	2.58	3.42	6.29	0.68	0.26
334.983	19.07	7.72	7.76	7.29	0.92	0.68	11.03	1.13	1.31	3.62	2.61	3.54	6.89	0.93	0.65
335.353	19.32	7.55	8.2	7.53	1.16	0.26	11.05	1	1.44	3.48	2.67	3.38	6.39	0.9	0.34
335.722	19.09	7.54	7.84	7.15	0.95	0.16	10.66	0.72	1.34	3.48	2.59	3.62	6.5	1.01	0.43
336.091	18.73	7.7	8.16	7.16	1.24	0.2	10.64	0.88	1.53	3.39	2.95	3.36	6.83	0.96	0.35
336.461	18.71	7.63	7.59	7.35	0.8	-0.01	10.58	0.53	1.05	2.94	2.49	3.18	6.21	0.74	0.08
336.83	19.25	8	8	7.93	1.59	0.58	11.13	1.19	1.69	3.77	2.98	3.86	6.75	1.22	0.54
337.199	18.68	7.76	8	7.39	0.88	-0.03	10.7	0.98	1.46	3.06	2.54	3.31	6.14	0.75	0.28
337.568	19.09	7.99	8.15	7.62	1.48	0.76	11.28	1.48	1.59	3.6	3.27	3.82	6.67	1.42	0.61
337.938	19.36	8.09	8.21	7.83	1.4	0.59	11.22	1.47	1.91	3.77	3.13	3.83	6.82	1.25	0.65
338.307	18.78	8.11	7.9	7.62	1.23	0.28	11.43	1.26	1.59	3.49	2.85	3.69	6.46	1.05	0.5
338.676	19.23	7.71	8.06	7.62	0.85	0.3	11.41	0.79	1.19	2.94	2.66	3.69	6.69	0.85	0.24
339.045	19	8.35	8.3	7.46	1.13	0.34	11.1	1.03	1.43	3.56	2.85	3.55	6.89	0.84	0.55
339.414	19.15	7.86	8.03	7.37	0.98	0.16	11.12	0.94	1.48	3.4	2.69	3.37	6.52	0.92	-0.04
339.783	18.85	7.87	7.99	7.32	1.03	0.16	10.98	0.91	1.38	3.42	2.76	3.53	6.51	0.77	0.35
340.152	18.34	7.25	7.26	6.62	0.64	-0.25	10.24	0.5	1.11	2.85	2.02	2.98	6.43	0.48	-0.24
340.521	18.36	7.34	7.73	7.3	0.64	0.24	10.42	0.83	1.41	3.14	2.7	3.59	6.44	0.91	0.32
340.889	17.99	7.33	8.02	7.12	1.26	0.58	10.41	0.87	1.67	3.26	2.58	3.13	6.49	0.99	0.28
341.258	18.55	7.7	8.01	7.31	1.3	0.77	10.47	1.17	1.5	3.23	3.08	3.59	6.62	1.2	0.73
341.627	18.23	6.94	7.46	6.91	0.68	-0.31	10.25	0.28	0.92	2.64	2.15	3.28	6.15	0.69	0
341.996	19.45	8.41	8.32	7.96	1.89	1.07	11.62	1.75	1.87	4	3.19	3.94	6.94	1.27	0.93
342.364	18.57	7.92	8.06	7.46	1.28	0.46	11.16	1.13	1.47	3.27	2.92	3.59	6.95	1.14	0.31
342.733	18.16	7.63	7.51	7.08	0.75	0.15	10.59	1.07	1.1	3.19	2.59	3.26	6.45	0.88	0.28
343.102	18.98	8.43	8.6	7.98	1.44	0.85	11.15	1.58	2.08	3.82	3.25	3.94	7.32	1.77	0.8
343.47	18.36	7.87	7.88	7.36	1.49	0.81	10.68	1.26	1.63	3.35	2.98	3.79	6.85	1.06	0.6
343.839	18.5	7.85	7.96	7.08	1.13	0.77	10.51	1.11	1.75	3.43	3.14	3.77	6.72	1.33	0.45
344.207	18.3	7.8	8	6.98	0.9	0.28	10.41	0.86	1.33	3.22	2.75	3.54	6.33	1.08	0.62
344.576	18.36	8.04	8.04	7.22	1.57	0.79	10.73	1.24	1.48	3.51	3.12	3.81	6.4	1.37	0.65
344.944	18.09	7.76	7.98	7.26	1.13	0.63	10.14	1.11	1.41	3.24	2.84	3.66	5.91	1.03	0.46
345.312	18.4	8.04	8.22	7.38	1.27	0.65	10.69	1.04	1.74	3.43	3.19	3.82	6.5	1.16	0.66
345.681	18.07	7.82	7.96	7.18	0.8	0.29	10.3	0.82	1.25	2.97	2.64	3.23	6.23	0.68	-0.04
346.049	18.21	7.46	7.74	7.24	0.75	0.4	10.35	0.77	1.08	3.07	2.66	3.44	6.01	0.93	0.08
346.417	18.78	8.17	8.19	7.45	1.11	0.47	10.69	0.65	1.3	3.26	2.78	3.47	6.5	0.95	0.4
346.786	18.4	8.19	8	7.64	1.23	0.46	11.49	1	1.49	3.69	3.08	3.62	7.03	1.34	0.63
347.154	18.8	8.39	8.2	7.02	0.89	0.3	10.79	1.25	1.41	3.37	2.57	3.56	6.84	1.14	0.21
347.522	18	7.57	7.51	6.66	0.53	-0.03	10.39	0.72	1.04	2.83	2.22	3.23	6.55	0.48	-0.43
347.89	18.18	7.76	7.7	7.17	0.74	0.23	10.68	0.75	1.44	2.96	2.76	3.66	6.57	0.93	0.05
348.258	18.03	8.09	7.89	7.11	1.45	0.63	10.49	1.14	1.66	3.15	2.94	3.52	7.03	0.88	0.32
348.626	18.12	7.18	7.51	6.43	0.48	-0.24	10.23	0.52	0.79	2.89	2.25	2.99	6.22	0.71	-0.21
348.994	17.71	7.69	8.14	7.33	1.18	0.47	10.75	1.03	1.46	3.37	2.82	3.5	6.56	1.31	0.37
349.362	17.89	7.55	7.82	7.27	0.74	0.11	10.18	1.06	1.23	3.23	2.43	3.36	6.55	0.79	0.01
349.73	17.92	7.71	8.21	7.37	1.18	0.46	10.76	1.09	1.41	3.7	2.7	3.76	6.71	1.16	0.43
350.098	18.42	8.34	8.11	7.11	1.33	0.75	10.79	1.1	1.65	3.49	3.01	3.7	7.11	1.13	0.5
350.466	17.91	7.98	7.77	6.96	0.83	0.27	10.59	0.63	1.1	2.88	2.66	3.34	6.67	0.99	0.26
350.833	18.14	7.85	7.97	7.19	0.96	0.37	10.91	1.01	1.42	3.08	2.91	3.37	7.13	1.4	0.19
351.201	18.11	7.84	8.18	7.2	1.16	0.54	10.96	1.04	1.42	3.16	3.19	3.83	7.37	1.17	0.63
351.569	18.02	7.9	8.11	7.32	1.2	0.51	10.89	1.2	1.72	3.16	3.09	3.85	7.38	1.33	0.69
351.936	17.96	7.73	7.79	6.61	0.73	0.27	10.24	0.75	1.11	2.77	2.61	3.55	6.77	0.95	0.23
352.304	17.41	7.51	7.71	6.84	0.83	0.27	10.25	0.94	1.52	3.03	2.37	3.64	6.89	0.55	-0.01
352.672	17.29	7.06	7.59	6.45	0.21	-0.37	9.89	0.34	0.68	2.64	2.14	2.98	6.46	0.27	-0.56
353.039	17.32	7.05	7.29	6.05	0.58	-0.29	10.02	0.46	0.72	2.63	2.38	3.02	6	0.47	-0.46
353.407	18.14	7.74	8.04	7.26	1.47	0.76	10.35	1.24	1.67	3	2.95	3.73	6.95	1.39	0.4
353.774	18.04	7.97	8.21	7.2	1.32	0.57	10.43	1.31	1.52	3.66	2.96	3.68	6.94	1.24	0.25
354.142	18.08	8.14	8.29	7.27	1.45	0.47	10.5	1.1	1.38	3.45	3.32	3.76	7.54	1.26	0.44
354.509	17.66	7.92	7.9	7.55	1.21	0.66	10.3	1	1.74	3.21	3.18	3.78	7.09	1.4	0.49
354.876	17.98	8.16	7.98	7.11	1	0.55	10.46	0.91	1.57	2.94	2.68	3.76	6.95	1.02	0.26
355.244	17.4	7.96	7.83	6.97	0.96	0.56	9.93	0.79	1.39	2.85	3.04	3.54	6.58	1.02	0.11
355.611	17.49	7.36	7.89	6.98	0.8	0.19	9.82	0.46	1.02	2.74	2.59	3.4	6.57	0.75	-0.06
355.978	17.88	7.9	8.13	6.97	1.17	0.6	10.16	0.91	1.5	3.03	2.77	3.39	6.94	1.27	0.53
356.345	17.32	7.8	7.86	7.03	0.85	0.34	9.47	0.43	0.92	2.6	2.37	3.18	6.63	0.94	-0.16
356.712	17.75	7.94	8.32	7.34	1.24	0.77	10.05	1.15	1.27	3.33	2.88	3.91	7.05	1.2	0.45
357.08	17.31	7.68	7.64	6.95	0.73	0.32	9.33	0.54	0.95	2.73	2.63	3.51	6.57	0.92	0.07
357.447	17.97	8.12	8.54	7.26	1.2	0.74	9.86	1.21	1.41	2.86	3.06	3.79	6.83	1.39	0.23
357.814	18.26	8.11	8.31	7.38	1.41	0.7	10.22	1.08	1.35	3.18	3.16	3.79	7.13	1.26	0.29
358.181	18.7	8.41	8.62	7.39	1.38	0.74	10.44	0.95	1.45	3.22	3.23	3.93	7.42	1.43	0.35
358.548	18.38	8	8.3	7.08	1.18	0.62	10.3	0.88	1.31	2.86	3.15	3.69	7.34	1.15	-0.04
358.915	18.02	7.9	8.1	7.22	0.88	0.31	9.97	0.62	0.95	2.65	2.56	3.38	6.94	0.78	-0.22
359.281	17.85	7.84	8.24	7.24	0.95	0.52	9.9	0.84	1.36	3.05	2.96	3.35	7.59	1.16	0.2
359.648	17.42	7.69	7.75	6.87	0.96	0.38	9.36	0.75	1.16	2.61	2.78	3.35	6.85	0.79	0.12
360.015	17.22	7.95	7.91	6.96	0.87	0.71	9.22	0.94	1.08	2.81	2.75	3.59	6.85	1.16	0.15
360.382	17.55	7.94	8.15	7.07	1.07	0.71	9.03	0.89	1.21	2.7	2.88	3.5	6.96	1.11	0.19
360.748	17.43	7.54	7.74	6.86	0.92	0.36	8.91	0.52	0.76	2.52	2.58	3.31	6.64	0.91	-0.3
361.115	17.47	7.86	8.01	7.03	1.15	0.57	9.05	0.89	1.14	2.85	2.95	3.64	6.78	1.22	0.36
361.482	18.09	7.84	8.11	7.11	1.36	0.8	9.06	0.96	1.08	2.86	3.01	3.72	6.76	1.27	0.21
361.848	18.21	8.05	8.53	7.33	1.02	0.72	9.26	0.67	1.06	2.73	2.84	3.83	6.98	1.22	-0.04
362.215	19.12	8.37	8.63	7.65	1.03	0.52	9.72	0.58	0.98	2.69	2.94	3.79	7.48	1.1	-0.27
362.581	19.38	8.49	8.67	7.64	0.68	0.27	10.22	0.6	0.74	2.7	2.8	3.49	7.64	1.06	-0.29
362.948	19.46	8.67	8.86	7.86	1.12	0.6	10.52	0.97	1.05	3.18	3.14	3.99	8.22	1.23	0.26
363.314	19.37	8.88	9.47	8.06	1.78	1.02	10.67	1.25	1.57	3.53	3.25	4.39	8.7	1.62	0.78
363.681	18.79	8.49	8.82	7.74	1.21	0.71	9.9	1.13	1.29	3.31	2.95	3.94	8.48	1.32	0.44
364.047	19.28	8.78	8.69	7.75	1.23	0.63	10.07	0.92	1.02	2.87	2.9	3.74	8.57	1.18	0.07
364.413	19.41	9.11	8.92	7.91	1.03	0.7	10.29	1.16	1.45	2.99	3.28	4.04	8.91	1.6	0.4
364.78	19.18	8.69	8.77	7.53	0.85	0.53	9.91	0.71	1.08	2.91	2.91	3.64	8.5	0.96	-0.19
365.146	18.75	8.55	8.65	7.58	1.1	0.58	9.77	0.81	1.21	2.95	2.89	3.48	8.69	1.19	-0.03
365.512	19.22	8.91	9.19	7.92	1.19	0.8	10.08	1.07	1.47	2.97	3	3.74	9.09	1.44	0.15
365.878	19.01	8.48	8.86	7.79	1.05	0.69	9.98	1.08	1.21	2.74	2.86	3.47	9.03	1.06	0.15
366.244	18.78	8.6	8.8	7.58	0.75	0.27	9.73	0.56	0.95	2.51	2.58	3.49	8.97	0.82	-0.27
366.61	19.29	8.65	8.79	8.01	0.97	0.52	10.12	0.84	1.16	2.85	2.96	3.8	9.41	0.88	-0.11
366.976	19.3	8.78	8.91	7.99	0.78	0.49	9.8	0.9	0.96	2.74	2.69	3.37	9.57	0.73	-0.11
367.342	19.59	8.86	9.17	7.56	1.1	0.57	9.89	0.97	1.46	3.02	2.56	3.82	9.91	0.94	0.09
367.708	19.88	8.79	9.08	7.89	0.75	0.52	10.25	0.9	0.85	2.63	2.96	3.46	10.07	0.65	-0.14
368.074	19.68	8.66	9.16	7.7	1.03	0.44	9.85	0.47	1.02	2.8	2.84	3.6	9.93	0.6	-0.34
368.44	19.68	8.6	9.13	7.79	0.7	0.34	9.8	0.41	0.9	2.35	2.63	3.5	10	0.76	-0.28
368.806	20.31	9.4	9.55	8.5	1.26	1.12	10.79	1.17	1.81	3.35	3.13	4.21	10.82	1.32	0.37
369.172	20.36	8.97	9.61	8.09	1.1	1.01	10.36	0.95	1.39	3	3.27	3.84	10.71	1.29	-0.01
369.537	20.12	8.8	9.17	8.19	0.99	0.51	9.73	0.75	1.12	2.78	2.69	3.5	10.61	1.11	0.02
369.903	20.44	9.79	9.76	8.8	1.44	1.17	10.18	1.49	1.6	3.35	3.45	4.36	11.42	1.53	0.55
370.269	20.06	9.02	8.85	7.87	0.94	0.57	9.6	0.69	1	2.72	2.74	3.82	10.77	0.94	-0.14
370.634	20.3	9.47	9.47	8.41	1.35	0.87	9.65	1.1	1.46	3.05	3.43	4.08	11.03	1.48	-0.04
371	20.25	9.25	9.95	8.7	1.4	1.1	9.99	1.05	1.45	3.16	3.22	4.26	11.5	1.34	0.17
371.366	21.26	9.7	9.97	8.99	1.71	1.21	10.04	1.25	1.62	3.29	3.54	4.37	12.09	1.27	0.31
371.731	21.67	10.31	10.11	9.34	1.55	1.36	10.63	1.25	1.62	3.52	3.6	4.45	12.45	1.77	0.4
372.097	21.43	10	9.96	9.08	1.08	0.93	10.23	1.02	1.32	2.97	3.19	4.23	12.34	1.26	0.19
372.462	22.15	10.59	10.59	9.19	1.7	1.7	10.85	1.72	1.83	3.55	3.81	4.79	13.33	2.02	0.75
372.827	22.14	10.41	10.57	9.58	1.67	1.4	10.7	1.56	1.75	3.51	3.76	4.8	13.68	1.62	0.42
373.193	22.05	10.24	10.67	9.49	1.51	1.02	10.59	1.46	1.56	3.35	3.63	4.68	14.22	1.54	0.38
373.558	21.88	10.06	10.37	9.33	1.57	1.21	10.24	1.79	1.74	3.27	3.64	4.8	14.07	1.56	0.5
373.923	21.64	10.13	10.07	9.14	1.33	0.88	10.01	1.24	1.59	2.97	3.34	4.32	13.7	1.34	0.17
374.288	21.59	10.28	10.53	9.33	1.43	1.14	10.04	1.37	1.54	3.22	3.55	4.32	14.15	1.23	0.23
374.654	21.54	9.84	9.96	8.89	0.81	0.57	9.49	0.78	1.08	2.53	2.97	3.95	14.43	0.54	-0.26
375.019	22.27	10.22	10.59	9.34	1.74	1.41	10.14	1.52	1.66	3.07	3.75	4.62	14.8	1.52	0.19
375.384	22.16	10.2	10.62	9.49	1.22	1.12	9.88	1.28	1.72	2.98	3.45	4.59	14.9	1.25	0.32
375.749	22.59	10.88	11.08	9.86	1.89	1.53	10.23	1.65	1.8	3.58	3.85	4.79	15.81	1.72	0.35
376.114	21.93	10.43	10.65	9.56	1.36	1.16	9.63	1.14	1.5	2.88	3.49	4.51	15.4	1.2	0.15
376.479	22.52	10.91	10.96	9.88	1.87	1.31	9.97	1.73	1.82	3.23	3.84	4.92	16.04	1.8	0.44
376.844	22.23	10.4	10.69	9.36	1.32	1.07	9.16	1.12	1.37	2.52	3.4	4.33	15.67	1	-0.09
377.209	22.84	10.56	10.77	9.53	1.43	1.04	9.33	1.28	1.53	2.86	3.47	4.52	16.1	1.13	-0.05
377.574	22.97	10.99	11.2	10.05	1.57	1.37	9.65	1.28	1.51	2.92	3.75	4.86	17.11	1.23	0.14
377.939	23.84	11.07	11.45	10.48	1.4	1.31	10.03	1.37	1.53	3.19	3.46	4.6	18.06	1.43	0.18
378.303	24.44	11.76	11.88	10.8	1.75	1.82	10.45	1.96	1.91	3.51	4.11	5.18	18.98	1.71	0.25
378.668	24.28	11.43	11.73	10.66	1.72	1.59	10.14	1.77	1.78	3.31	3.87	5.12	19.67	1.67	0.28
379.033	24.03	11.46	11.6	10.48	1.71	1.37	10.38	1.68	1.75	3.01	3.6	4.76	19.55	1.24	0.07
379.397	24.06	11.23	11.3	10.1	1.36	1.3	9.8	1.59	1.57	3.25	3.41	4.9	19.84	1.32	-0.32
379.762	24.4	11.57	11.95	10.88	1.69	1.44	10.08	1.64	1.99	3.13	3.8	5.35	20.44	1.44	0.12
380.127	24.34	11.72	11.91	10.82	1.46	1.38	9.93	1.66	1.67	3.24	3.89	5.28	20.6	1.4	-0.01
380.491	24.63	11.55	11.64	11.34	1.8	1.66	9.86	1.81	1.88	3.04	3.79	5.47	21.15	1.32	-0.06
380.856	25.37	12.48	12.87	11.32	2.01	1.85	10.73	2.26	2.27	3.62	4.35	5.83	22.78	1.86	0.63
381.22	25.74	12.24	12.77	11.66	1.74	1.74	10.29	2.26	1.8	3.53	4.15	5.5	23.15	1.57	0.37
381.584	26.15	13.04	13.19	12.17	2.32	2.47	11.08	2.82	2.86	4.07	4.59	6.4	24.21	2.04	0.72
381.949	25.74	12.16	12.74	11.64	1.61	1.49	10.36	2.04	1.99	3.48	3.98	5.87	24.35	1.2	-0.1
382.313	25.59	12.35	12.96	11.82	2.11	2.19	10.19	2.65	2.72	3.56	4.41	6.32	24.61	1.64	0.2
382.677	25.21	12.16	12.42	11.96	1.82	2.05	9.93	2.1	2.24	3.46	3.92	5.83	24.53	1.53	0.22
383.042	26.29	12.93	13.23	12.34	2.07	2.14	10.2	2.73	2.47	3.77	4.51	6.29	25.89	1.84	0.48
383.406	26.15	13.07	13.04	12.3	2.42	2.5	10.12	3.08	2.77	3.74	4.55	6.3	25.9	1.98	0.39
383.77	26.68	12.87	13.09	12.35	2.18	2.24	10.14	2.76	2.44	3.4	4.55	6.32	26.78	1.67	0.15
384.134	26.9	13.15	13.2	12.67	1.82	2.03	10.22	2.65	2.44	3.67	4.25	6.03	27.25	1.52	-0.02
384.498	27.01	13.55	13.97	12.99	2.26	2.36	10.35	3.02	2.87	3.87	4.38	6.49	28.22	1.83	0.28
384.862	27.38	13.36	13.93	13.1	2.14	2.47	10.45	2.94	2.74	3.77	4.65	6.53	29.16	1.69	0.01
385.226	27.46	13.48	13.7	13.21	2.14	2.42	10.44	3.07	2.81	3.85	4.62	7	29.5	1.79	0.08
385.59	27.45	13.41	13.89	13.01	1.89	2.22	10.22	2.93	2.52	3.68	4.38	6.46	30.28	1.83	-0.03
385.954	28.31	13.89	14.08	13.6	2.5	2.62	10.37	3.41	3.11	3.99	4.63	6.98	31.15	1.75	0.21
386.318	28.08	13.81	14.14	13.91	2.15	2.57	10.52	3.46	3.25	3.81	4.75	6.86	31.79	1.84	0.14
386.682	28.11	13.91	14.43	13.73	2.22	2.71	10.19	3.47	3.11	3.89	4.62	7.02	32.3	1.67	0.15
387.046	28.18	14.44	14.42	14.24	2.51	2.76	10.58	3.56	3.49	4.08	4.98	7.42	33.32	1.91	0.25
387.41	28.83	14.31	14.83	14.48	2.46	2.86	10.6	3.61	3.67	4.16	5	7.32	34.58	1.92	0.09
387.773	29.64	14.78	15.28	14.99	2.52	3.28	11.04	4.08	3.93	4.6	5.09	7.86	35.7	1.98	0.23
388.137	29.84	15.12	15.51	15.18	2.59	3.09	10.94	4.26	3.75	4.47	5.25	7.54	36.63	1.96	0.26
388.501	30.01	14.8	15.43	15.57	2.82	3.13	11.24	4.61	4.4	4.72	5.51	8.15	37.53	2.04	0.31
388.864	30.15	15.28	15.51	15.56	2.67	3.2	11.33	4.29	4.41	4.36	5.17	8.11	38.55	1.96	0.27
389.228	30.14	15.23	15.25	15.4	2.41	3.07	11.13	4.71	4.41	4.55	5.05	8.01	38.43	1.85	0.21
389.591	30.27	15.43	15.74	15.55	2.59	3.12	10.91	4.9	4.51	4.54	5.53	8.21	39.35	1.98	-0.13
389.955	29.88	15.3	15.46	15.51	2.86	3.3	11.01	4.88	4.45	4.75	5.35	8.12	39.98	1.8	0.1
390.318	29.9	15.28	15.53	15.82	2.55	3.47	10.99	5.28	4.81	4.72	5.59	8.49	39.84	2.12	0.23
390.682	30	15.17	15.52	15.66	2.81	3.64	10.87	5.41	4.91	4.95	5.35	8.51	39.72	1.87	0.15
391.045	30.21	15.45	15.9	15.97	2.94	3.78	11.08	5.78	5.27	4.89	5.71	8.65	40.43	2.29	0.27
391.408	31.06	16.03	16.66	17.01	3.12	4.26	11.39	6.44	5.88	5.61	6.08	9.37	42.11	2.36	0.73
391.772	31.87	16.31	16.93	17.38	3.3	4.46	11.65	6.31	5.77	5.71	6.12	9.34	43.81	2.47	0.28
392.135	32.59	16.91	17.3	17.5	3.19	4.6	12.05	6.74	6.17	5.72	6.6	9.63	45.75	2.44	0.32
392.498	32.76	17.05	17.23	17.66	3.11	4.33	12.1	6.7	6.27	5.6	6.21	9.67	46.96	2.24	0.15
392.861	32.31	17.04	17.34	17.8	3.38	4.49	12.26	7.06	6.59	6.04	6.43	9.68	47.08	2.49	0.28
393.224	32.14	16.86	17.54	18.13	3.13	4.64	12.22	7.43	7	6.06	6.61	9.89	47.37	2.31	0.26
393.587	33.18	17.59	17.86	18.67	3.89	5.12	12.79	8.39	7.62	6.72	6.9	10.54	48.78	2.55	0.87
393.95	32.4	17.08	17.35	18.14	3.09	4.55	12.31	7.76	7.12	6.4	6.32	10.15	48.67	2.05	0.03
394.313	33.95	17.9	18.1	19.32	3.91	5.42	12.8	9.01	8.02	7.06	7.02	10.93	50.86	2.75	0.57
394.676	33.88	17.81	18.08	19.35	3.49	5.01	13.07	8.74	8.26	6.75	6.78	10.86	51.86	2.34	0.07
395.039	34.74	18.17	18.81	19.66	3.62	5.34	13.67	9.27	8.46	7.4	6.98	11.18	53.66	2.32	0.19
395.402	35.26	18.83	19.49	20.62	4.17	5.96	14.5	9.97	9.35	8	7.55	11.94	56.19	2.9	0.58
395.765	35.29	19.31	19.19	20.89	4.15	6.19	14.79	10.41	9.83	8.34	7.83	11.89	56.76	2.82	0.66
396.128	35.22	18.87	19.38	20.89	4.23	6.28	15.02	10.81	9.98	8.23	7.77	12.04	58.06	2.69	0.43
396.49	34.94	18.4	19.21	20.7	4	6.04	14.82	10.93	10.06	8.4	7.64	12.07	57.44	2.7	0.49
396.853	35.12	18.84	19.26	21.18	3.93	5.77	14.67	11.21	10.64	8.54	7.59	12.15	58.95	2.43	0.27
397.216	35.32	19.35	19.71	21.41	4.35	6.66	15.5	11.9	11.31	9.2	8.02	12.62	59.98	2.74	0.79
397.578	35.46	19.34	19.68	21.52	4.23	6.84	15.77	12.35	11.78	9.42	8.01	12.8	60.14	2.74	0.81
397.941	34.98	19.24	19.3	21.25	3.72	6.04	15.21	12.33	11.57	9.3	7.51	12.48	59.96	2.17	-0.06
398.304	35.39	19.05	19.61	21.57	4.07	6.63	15.85	12.77	12.21	9.76	7.99	12.79	61.22	2.47	0.16
398.666	35.79	19.52	20.09	22.14	4.28	7.08	16.68	13.83	12.84	10.13	8.52	13.51	62.14	2.81	0.39
399.029	36.15	19.88	20.01	22.65	3.78	7.01	16.5	13.96	13.36	10.39	8.22	13.35	63.75	2.43	0.05
399.391	36.55	19.69	20.53	22.8	4.35	7.07	17.17	14.7	14.12	10.92	8.38	13.74	64.48	2.4	0.42
399.753	36.71	20.11	20.34	22.91	4.25	7.07	17.53	15.04	14.49	11.15	8.61	14.05	65.85	2.29	0.26
400.116	37.61	20.72	21.08	23.83	4.98	7.9	18.67	15.96	15.55	12.24	9.24	14.44	68.29	3.07	0.5
400.478	36.94	20.21	20.48	23.3	4.21	7.46	18.26	15.98	15.59	12.18	8.7	14.06	68.45	2.39	-0.15
400.84	36.92	20.07	20.63	23.18	4.17	7.58	18.72	16.27	16.08	12.09	8.79	14.24	68.94	2.17	0.11
401.202	36.71	20.19	20.74	23.95	4.64	7.87	19.18	17.23	16.7	12.63	8.99	14.47	69.24	2.31	0.1
401.565	37.16	20.33	20.97	24.28	4.87	8.28	20.04	17.93	17.35	13.44	9.32	15.1	69.5	2.81	0.56
401.927	36.88	20.21	20.82	24.28	4.38	8.19	19.88	18.13	17.87	13.39	8.96	14.58	70.55	2.03	-0.17
402.289	37.83	21.01	21.18	24.73	4.91	8.69	21.05	19.18	19.13	14.41	9.74	15.45	70.65	2.86	0.57
402.651	37.14	20.36	20.49	24.3	4.37	8.41	20.39	19.05	18.76	14.39	9.23	15.12	70.48	2.35	-0.05
403.013	36.88	20.3	21.11	24.35	4.71	8.25	20.93	19.73	19.46	14.62	9.48	15.1	70.6	2.46	0.01
403.375	36.64	20.48	21.06	24.76	4.7	8.77	21.6	20.39	20.22	15.17	9.62	15.53	70.76	2.55	0.02
403.737	37.11	20.65	21.17	24.81	5.07	9.01	22.21	21.21	21.19	16.08	10.12	16.02	71.43	2.58	0.3
404.099	37.78	20.92	21.32	25.28	5.03	9.22	22.99	21.98	21.8	16.65	10.1	15.94	72.93	2.57	0.19
404.46	38.69	21.69	22.1	26.17	5.77	9.89	24.26	23.52	23.23	17.83	10.87	16.88	74.42	3.14	0.59
404.822	39.28	22.22	22.89	26.98	5.91	10.21	25.24	24.3	24.07	18.73	11.04	17.43	76.83	3.27	0.57
405.184	39.92	22.69	22.91	27.29	6.17	10.8	26.28	25.23	25.33	19.3	11.58	17.83	77.99	3.42	1.18
405.546	39.97	22.6	22.91	27.56	5.85	10.73	27.09	25.54	26.04	19.88	11.61	17.96	79.95	3.26	0.83
405.907	39.58	22.55	22.8	27.49	6.08	11.04	27.93	26.03	26.76	20.23	11.53	17.99	80.1	3.15	0.65
406.269	39.97	22.98	23.6	28.08	6.28	11.26	28.99	27.08	27.92	21.32	11.8	18.55	81.83	3.36	0.7
406.631	40.44	23.59	24.02	28.39	6.65	11.9	30.11	28.32	29.04	22.37	12.23	18.93	83.53	3.48	1.01
406.992	40.38	23.1	23.82	28.3	6.35	11.25	30.9	28.63	29.65	22.64	12.19	18.77	83.72	3.16	1.14
407.354	40.5	23.11	23.8	28.4	6.65	11.61	31.64	29.32	30.57	23.28	12.46	19.18	84.99	3.19	0.82
407.715	40.29	23.17	23.98	29.06	6.29	11.75	32.53	30.08	31.86	24.12	12.33	19.05	85.68	3.09	0.79
408.077	39.93	22.64	23.44	28.25	6.4	11.84	33.03	30.45	32.09	24.2	12.11	19.02	85.29	2.95	0.7
408.438	40.21	22.96	23.75	28.77	6.59	12.14	34.07	31.31	33.36	25.44	12.77	19.52	85.58	3.7	1.33
408.799	39.64	22.32	23.24	28.11	6.4	11.77	33.89	31.32	33.11	25.21	12.46	19.12	84.46	2.77	0.86
409.161	39.97	23	23.51	28.88	7.01	12.34	35.19	32.7	34.43	26.34	13.05	19.87	84.61	3.52	1.59
409.522	39.87	23.01	23.33	28.89	7.08	12.16	36.14	33.52	35.6	27.15	13.22	19.92	85.47	3.36	1.25
409.883	40.19	23.43	24.01	29.59	7.2	12.83	37.18	34.67	36.39	28.35	13.56	20.52	86.51	3.59	1.47
410.244	40.43	23.21	24.03	29.54	6.97	12.85	37.99	35.14	37.34	28.65	13.51	20.13	87.54	3.12	1.18
410.605	41.49	24.09	24.48	30.44	7.48	13.42	39.8	36.79	39.1	30.06	14.01	20.95	90.4	3.66	1.59
410.967	41.38	24.24	24.74	30.55	7.72	13.49	41.14	37.19	39.39	31.05	14.3	21.21	91.45	3.47	1.77
411.328	41.84	24.09	24.69	30.47	7.66	13.4	42.37	37.97	40.98	31.64	14.29	21.48	92.39	3.61	1.79
411.689	42.27	24.34	24.74	30.62	7.71	13.69	43.65	39.02	41.87	32.71	14.41	21.86	93.62	3.65	1.86
412.05	41.34	24.12	24.51	30.11	7.88	13.6	44.15	39.13	42.38	32.84	14.64	21.49	92.86	3.51	1.88
412.41	41.13	24.41	24.58	30.64	8.02	14.11	45.25	39.96	43.33	33.75	14.92	21.73	93.32	3.49	2.32
412.771	41.22	24.35	25	30.92	8.03	14.26	46.24	40.93	44.78	34.82	15.22	22.07	93.23	3.68	2.6
413.132	40.54	23.81	24.36	30.91	7.89	14.02	46.71	41.13	45.13	34.97	14.81	21.89	93.14	3.46	2.31
413.493	40.77	23.69	24.26	30.33	7.95	14.09	47.81	41.37	45.64	35.34	15.14	21.96	94.02	3.07	2.29
413.854	41.34	24.44	24.81	31.33	8.57	14.49	49.16	42.94	47.42	37.08	15.63	22.43	94.65	3.78	2.97
414.215	40.8	23.98	24.6	30.89	8.24	14.66	49.86	43.2	47.48	37.24	15.57	22.39	93.82	3.71	3.09
414.575	40.21	23.52	24.2	30.79	8.39	14.6	50.18	43.53	48.17	37.82	15.23	22.27	92.7	3.66	3.23
414.936	39.62	23	24.11	29.9	8.11	14.38	50.13	43.82	48.43	37.72	15.45	22.22	91.8	3.49	3.23
415.296	39.97	23.69	24.3	30.49	8.91	14.81	51.43	45.1	49.27	39.05	15.92	22.95	92.27	3.86	3.69
415.657	39.98	23.48	24.22	30.5	8.74	14.88	52.25	45.72	50.2	39.21	16.16	22.94	92.37	3.87	3.82
416.018	39.78	23.96	24.17	30.74	8.81	15.12	53.34	46.46	51.28	40.19	16.42	22.62	92.98	3.8	3.84
416.378	40.29	23.97	24.49	30.82	9.05	15.42	54.75	47.3	52.04	40.83	16.47	23.21	93.47	3.93	4.43
416.738	39.96	23.69	24.28	30.54	9.06	15.28	54.65	47.35	52.07	41.37	16.52	23.01	92.33	3.95	4.63
417.099	39.13	23.33	23.79	30.1	8.8	15.1	54.67	47.51	52.46	41.26	16.3	22.65	91.42	3.84	4.69
417.459	39.33	23.35	23.96	30.42	8.86	15.1	56.07	48.59	53.98	42.39	16.4	23.19	91.74	3.66	4.76
417.819	39.42	23.4	24.09	30.5	8.97	15.51	56.87	49.22	54.47	43.25	16.65	23.28	92.14	3.9	5.23
418.18	39.74	23.69	24.09	30.95	9.26	15.62	58.16	50.15	55.45	44.1	17.03	23.45	92.3	4.12	5.33
418.54	39.67	23.61	24.15	30.88	9.28	15.63	59.32	50.91	56.19	44.95	17.29	23.49	93.7	4.02	5.87
418.9	39.86	23.66	24.57	30.8	9.34	15.96	60.95	51.65	57.7	45.85	17.35	23.88	94.23	3.92	6.05
419.26	39.82	23.79	24.2	30.82	9.41	15.84	61.62	52.19	58.24	46.22	17.29	23.91	94.48	4.04	6.29
419.62	39.12	23.66	24.12	30.38	9.47	15.99	61.78	51.93	58.25	46.59	17.52	23.9	93.93	4.07	6.68
419.98	38.72	23.07	23.38	30.07	9.27	15.55	61.48	52.01	58.33	46.49	17.07	23.39	92.02	3.73	6.8
420.34	39.13	23.4	24.12	30.6	9.44	15.98	62.88	53.37	59.4	47.48	17.46	23.92	92.59	4.06	7.35
420.7	39.72	23.83	24.39	31.36	9.74	16.55	64.69	55.17	61.31	49.1	17.98	24.4	94.56	4.1	7.79
421.06	40.39	24.37	24.87	31.71	10.01	16.69	67.22	56.21	63.5	50.31	18.36	24.86	97.5	3.93	8.19
421.42	40.81	24.67	25.17	31.97	10.02	16.97	69.84	57.34	64.77	51.67	18.75	25.12	100.02	4.04	8.7
421.78	41.3	25.46	25.97	32.18	10.5	17.54	72.04	57.89	66	52.85	19.3	25.89	101.58	4.37	9.51
422.14	40.99	25.16	25.86	31.96	10.58	17.56	73.03	58.33	66.04	53.17	19.33	25.84	102.03	4.32	10.05
422.5	39.93	24.36	24.87	31.22	10.13	17.11	71.95	57.04	65.5	52.21	18.85	25.14	100.47	4.03	10.21
422.859	39.36	23.91	24.62	31.14	10.16	17.02	71.89	57.62	65.3	52.55	18.7	24.89	98.3	4.12	10.6
423.219	38.56	23.31	23.86	30.53	9.98	16.68	70.89	57.04	64.62	51.86	18.49	24.38	95.93	4.02	10.96
423.579	38.73	23.46	24.09	30.69	10.18	16.71	71.28	57.62	65.34	52.46	18.47	24.95	95.97	4.25	11.44
423.938	39.31	23.81	24.46	31.31	10.3	17.13	73.44	59.62	67.34	54.11	18.88	25.25	97.89	4.21	12.01
424.298	40.22	24.87	25.26	31.71	10.82	17.7	76.04	60.5	69.22	55.39	19.65	26.2	100.86	4.5	13.02
424.657	40.66	25.06	25.59	32.24	10.82	18.14	78.93	61.8	70.87	56.91	20.31	26.54	103.71	4.4	13.76
425.017	41.52	25.76	26.28	33.02	11.32	18.56	81.25	63.16	72.76	58.45	20.73	27.08	106.3	4.58	14.8
425.376	41.77	25.75	26.58	33.24	11.67	18.85	83.81	64.04	73.89	59.3	21.04	27.24	109.13	4.36	15.43
425.736	41.58	25.8	26.48	33.03	11.75	19.05	84.71	64.64	74.3	59.99	20.98	27.25	110.21	4.55	16.42
426.095	41.56	25.95	26.34	32.86	11.63	19.07	85.68	64.16	74.72	60.18	21.3	27.31	110.93	4.68	16.96
426.454	41.85	26.02	26.81	33.24	11.89	19.2	87.42	65.01	75.81	61.23	21.69	27.7	111.83	4.7	18.04
426.814	41.99	26.13	26.99	33.5	11.89	19.53	89.28	66.33	77.06	62.26	21.84	27.81	114.1	4.35	18.74
427.173	41.45	26.02	26.56	33.19	11.79	19.12	89.41	65.25	76.86	61.44	21.56	27.58	113.32	4.56	19.67
427.532	41.03	25.65	26.64	32.77	12.27	19.27	89.75	65.01	76.46	61.86	21.58	27.55	112.63	4.68	20.07
427.891	40.75	25.66	26.27	32.86	12.06	19.26	89.42	65.09	76.19	62.09	21.45	27.69	112.94	4.45	20.99
428.25	39.36	24.71	25.51	31.94	11.83	18.67	88.16	64.01	75.1	60.86	21.05	27.19	109.3	4.4	21.03
428.609	39.31	24.66	25.37	32.33	11.76	18.51	87.88	64.14	74.51	60.54	20.95	27.09	109.04	4.43	21.83
428.968	39.19	24.39	25.17	31.69	11.67	18.56	88.11	64.72	75.27	61.41	21.29	26.88	108.83	4.35	22.81
429.327	39.37	24.82	25.49	32.25	12.28	18.83	89.33	64.96	75.97	61.71	21.47	27.41	109.55	4.63	23.44
429.686	39.49	24.71	25.41	32.02	11.75	18.97	90.67	66.14	76.69	62.43	21.46	27.37	111.31	4.38	24.36
430.045	39.41	24.71	25.32	32.03	12.08	19.02	90.97	65.9	76.93	62.72	21.59	27.26	111.1	4.3	25.16
430.404	38.93	24.52	25.11	31.8	11.95	18.76	90.76	65.62	76.68	61.71	21.47	27.39	110.81	4.35	25.83
430.763	38.95	24.52	25.35	31.85	12.11	19.15	91.77	66.02	77.14	62.63	21.71	27.32	111.15	4.41	26.89
431.122	37.42	23.93	24.43	30.52	11.47	18.34	89.86	64.43	75.22	61.26	20.98	26.57	108.26	4.03	26.7
431.48	37.64	23.77	24.25	30.46	11.87	18.45	89.74	64.91	75.14	61.1	21.05	26.63	108.1	4.24	27.59
431.839	36.97	22.88	23.57	30.23	11.53	17.95	88.1	64.33	74.62	60.61	20.63	26.28	105.55	4.17	27.58
432.198	36.94	23.43	24	30.4	11.93	18.14	89.26	64.97	75.04	60.96	21.06	26.44	105.92	4.18	28.58
432.556	36.85	23.26	23.85	30.04	11.81	18.31	89.1	65.37	75.59	61.42	21.05	26.73	105.94	4.28	29.41
432.915	37.09	23.4	23.63	30.22	11.8	18.17	90.32	65.85	75.89	61.84	21.01	26.8	106.36	4.06	30.17
433.273	37.67	23.91	24.32	30.66	12.13	18.79	92.35	67.24	77.52	63.57	21.78	27.29	108.68	4.48	31.78
433.632	38.19	24.2	24.92	31.29	12.47	19.3	94.27	68.34	78.96	64.6	21.96	27.77	110.89	4.59	32.83
433.99	39.18	25.02	25.5	31.72	12.7	19.79	97.89	69.68	81.39	66.35	22.58	28.45	115.2	4.53	34.64
434.349	39.12	25.12	25.64	31.81	13.02	19.87	98.77	70.03	82.27	67.1	22.85	28.68	117.44	4.35	35.94
434.707	38.46	24.74	25.49	31.45	13.01	19.94	99.54	69.33	81.85	66.19	23.03	28.54	116.91	4.43	36.54
435.065	38.76	24.57	25.54	31.59	12.77	19.82	100.61	69.68	82.5	66.95	22.78	28.48	118.56	4.39	37.56
435.423	37.55	24.46	25	31.03	12.56	19.68	99.34	69.15	81.42	66.39	22.52	28.15	116.55	4.19	37.6
435.782	38.02	24.47	25.03	31.28	12.82	19.74	99.91	69.3	81.74	66.7	22.91	28.28	117	4.34	39.01
436.14	37.15	23.8	24.54	30.52	12.79	19.42	97.82	68.11	80.37	65.54	22.48	27.95	114.97	4.23	38.83
436.498	36.71	23.68	24.09	30.63	12.39	18.92	97.87	68.25	80.18	65.56	22.04	27.57	114.58	4.03	39.45
436.856	36.61	23.67	24.07	30.7	12.8	19.27	97.76	68.5	80.16	65.38	22.32	27.69	113.61	4.25	40.2
437.214	36.63	23.44	24.26	30.43	12.66	19.41	97.19	68.13	79.9	65.29	22.32	27.86	113.36	4.47	40.99
437.572	36.66	23.25	23.91	30.09	12.59	19.12	96.69	67.66	79.23	65.04	22.38	27.72	112.42	4.4	41.21
437.93	36.35	23.42	24.03	29.92	12.65	19.45	96.94	68.05	80.2	65.05	22.3	27.87	112.65	4.43	41.9
438.288	35.63	22.75	23.35	29.26	12.08	18.66	95.55	67.73	79.02	64.2	21.72	27.11	111.15	4	41.91
438.646	35.34	22.96	23.25	29.32	12.32	18.94	95.5	67.49	78.69	64.45	22.02	27.23	110.36	4.19	42.6
439.004	35.12	22.81	23.05	29.39	12.17	18.85	95.14	67.63	79.05	64.31	22.07	27.25	109.58	4.3	42.62
439.361	35.13	22.53	23.09	29.07	12.3	18.99	94.73	67.69	79.09	64.51	21.89	27.43	109.32	4.23	43.57
439.719	34.99	22.62	23.14	29.11	12.33	19	95.53	68.09	79.46	64.91	22.08	27.41	109.88	4.27	44.08
440.077	35.14	22.89	23.47	29.48	12.43	19.53	96.27	68.82	80.36	65.88	22.35	27.83	111.09	4.4	45.27
440.435	35.92	23.18	23.81	29.85	12.78	19.72	98.47	70.5	82.13	67.11	22.87	28.38	113.71	4.35	46.72
440.792	36.28	23.74	24.18	30.28	12.82	20.17	100.76	71.14	83.3	68.16	23.05	28.6	116.16	4.44	48.25
441.15	37.14	24.24	24.83	30.7	13.17	20.68	104.01	72.83	85.29	70.37	23.84	29.66	119.67	4.58	50.08
441.507	37.32	24.51	25.18	30.9	13.51	21	105.68	73.37	86.01	70.52	24.23	29.74	122.23	4.8	51.58
441.865	37.71	24.78	25.09	31.09	13.54	21.01	106.69	73.15	86.52	70.45	24.12	29.84	123.73	4.82	52.5
442.222	36.75	24.27	24.79	30.46	13.24	20.69	106.69	72.32	85.83	69.95	23.87	29.45	123.65	4.53	52.67
442.58	36.51	24.06	24.65	30.15	13.29	20.56	105.13	71.81	84.73	69.21	23.68	29.11	121.83	4.55	52.98
442.937	35.84	23.63	24.24	29.85	13.03	20.3	104.68	71.14	84.18	68.81	23.44	28.95	121.01	4.36	52.86
443.294	34.98	23.08	23.66	29.46	12.78	20	101.67	69.91	82.18	67.35	23.16	28.46	116.93	4.76	52.33
443.652	34.03	22.51	22.97	28.42	12.18	19.46	99.59	68.83	81.06	66.35	22.57	27.65	114.96	4.31	51.4
444.009	33.47	22.26	22.68	28.3	12.35	19.47	97.89	68.22	79.7	65.29	22.49	27.65	112.76	4.49	51.11
444.366	33.63	22.12	22.71	28.07	12.44	19.3	97	68.27	79.41	64.95	22.44	27.41	111.68	4.5	51.23
444.723	32.75	21.84	22.27	27.8	11.96	18.7	95.46	68.03	78.45	64.32	22.28	27.18	110.04	4.41	51.12
445.08	32.95	21.8	22.02	27.73	11.92	19.01	95.74	67.9	78.68	64.67	22	27.54	110.05	4.51	51.32
445.438	32.92	21.7	22.24	27.71	12.03	19.03	95.21	67.62	78.71	64.41	22.25	27.57	109.11	4.56	51.97
445.795	33.44	21.94	22.46	28.12	12.12	19.03	97.03	69.1	79.94	65.5	22.55	27.87	111.02	4.4	53.01
446.152	33.55	22.14	22.76	28.37	12.19	19.54	98.87	70.31	81.31	66.75	23.08	28.29	113.35	4.44	54.63
446.508	34.75	22.86	23.36	28.81	12.66	20.18	101.52	71.77	83.63	68.29	23.61	28.92	117.17	4.74	56.32
446.865	34.66	22.91	23.4	28.87	12.8	20.26	103.38	71.98	84.45	69.19	23.72	29.34	118.87	4.79	57.47
447.222	35.35	23.62	24.18	29.59	13.08	21.07	106.77	73.77	86.59	70.86	24.37	30.28	123.29	5.08	60.04
447.579	35.48	24.08	24.35	29.84	13.3	21.29	108.49	74.44	87.85	71.75	24.69	30.29	125.93	4.97	60.88
447.936	35.6	23.98	24.65	29.84	13.65	21.29	109.18	74.25	87.9	71.8	24.83	30.34	126.26	5.12	61.56
448.293	35.19	23.72	24.55	29.48	13.26	21.07	108.66	73.57	87.31	71.17	24.47	29.92	126.09	4.77	61.41
448.649	35.19	23.66	24.27	29.61	13.33	21.26	110.06	73.69	88.04	72.26	24.49	30.07	128.41	4.86	62.4
449.006	35.38	23.85	24.27	29.69	13.62	21.54	110.13	73.6	87.58	71.17	24.79	29.95	127.83	5.21	62.88
449.363	34.83	23.56	24.15	29.62	13.26	21.23	110.65	74.02	87.98	71.54	24.66	30.12	128.64	4.8	63.61
449.719	34.36	23.35	23.8	29.37	12.94	21.02	109.6	73.38	87.28	70.85	24.44	29.67	128.43	4.64	63.28
450.076	34.56	23.21	24.06	28.96	13.27	20.84	109.98	73.11	87.13	71.45	24.68	29.67	128.66	4.92	63.96
450.432	33.73	22.8	23.55	28.44	12.83	20.88	108.12	72.03	85.55	69.87	24.26	29.23	126.3	4.95	62.88
450.789	33.04	22.43	23.21	28.11	12.8	20.44	105.45	70.38	83.86	68.64	23.89	28.73	123.5	4.75	61.84
451.145	32.34	22.28	22.81	28.03	12.98	20.22	104.3	70.05	82.83	67.66	23.59	28.64	121.84	5.02	61.72
451.501	32.12	21.88	22.31	27.47	12.62	19.81	103.28	70.22	82.31	67.36	23.57	28.26	120.11	4.58	60.94
451.858	32.28	21.87	22.53	27.62	12.68	19.87	102.9	70.29	82.69	67.41	23.49	28.54	120.08	4.87	61.21
452.214	32.89	22.13	22.92	27.96	12.94	20.24	104.71	71.44	83.83	68.83	24.25	29.26	122.07	5	62.63
452.57	33.17	22.71	23.07	28.52	13.03	20.72	106.5	72.82	85.65	70.28	24.29	29.66	124.48	4.89	63.8
452.926	32.82	22.57	23.05	28.15	13.09	20.7	107.38	72.49	85.81	70.05	24.53	29.44	125.28	5.02	64.47
453.282	33.3	22.7	22.98	28.28	13.14	20.81	107.09	72.19	85.17	69.99	24.63	29.59	125.71	5	64.67
453.638	32.88	22.43	22.94	28.19	13.07	20.46	107.18	71.46	84.72	68.86	24.12	29.18	125.17	5.03	64.77
453.995	32.83	22.34	23.17	27.71	13.05	20.32	106.49	71.34	84.32	69.06	24.37	29.26	124.8	5.28	64.6
454.351	32.5	22.32	22.6	27.67	12.86	20.65	106.43	71.31	84.34	68.55	24.28	29.09	124.39	5.03	65.06
454.707	32.61	22.44	22.93	27.73	12.96	20.69	106.32	71.99	84.23	69.62	24.26	29.26	125	5.18	65.09
455.062	32.45	22.18	22.64	27.76	13.02	20.51	106.6	71.61	84.16	69.09	24.21	29.49	124.68	4.94	65.43
455.418	32.75	22.66	23.19	28.14	13.57	20.9	108.64	73.24	86.25	70.58	24.7	29.99	127.81	5.28	66.56
455.774	32.54	22.26	22.49	27.91	13.51	20.72	108.02	72.87	85.53	70.5	24.55	29.65	127.72	5	66.98
456.13	32.43	22.15	22.67	27.83	13.4	20.77	107.58	71.89	84.91	69.75	24.66	29.73	126.49	5.14	66.86
456.486	32.01	21.82	22.16	27.3	13.11	20.11	107.02	71.68	85.06	69.3	24.19	29.25	125.91	4.75	66.3
456.841	31.39	21.69	22.46	27.22	13.07	20.41	106.58	70.91	84.71	68.92	24.2	29.17	124.73	5.08	66.19
457.197	30.93	21.39	21.91	27.13	13.11	20.21	104.64	70.12	82.61	67.89	23.73	28.82	122.35	4.98	64.54
457.553	30.36	20.79	21.45	26.21	12.85	19.62	101.54	69.1	81.09	65.89	23.24	28.18	119.09	5.06	63.5
457.908	29.59	20.09	20.7	25.6	12.21	18.95	99.55	67.91	79.75	64.79	22.7	27.5	117	4.52	61.99
458.264	29.34	20.25	20.72	25.44	12.42	18.88	97.85	67.28	78.87	64.62	22.71	27.4	114.58	4.84	61.2
458.619	28.66	19.58	20	24.84	12.09	18.55	95.19	66.47	77.11	63.45	22.12	26.71	111.5	4.63	60.08
458.975	28.42	19.65	20.12	25.08	12.22	18.56	94.65	67.08	77.78	63.73	22.14	27.29	111.12	4.68	60.34
459.33	29.42	20.31	20.65	25.75	12.54	19	97.29	69.36	80.04	65.58	22.78	27.95	113.53	4.88	61.7
459.686	30.75	20.98	21.48	26.69	13.07	19.9	102.56	72.75	84	69.13	23.96	28.94	120.12	4.93	64.77
460.041	32.24	22.2	22.7	27.55	13.84	21.14	108.77	75.14	87.74	72.15	25.07	30.33	127.11	5.38	68.8
460.396	33.1	22.88	23.55	28.17	14.33	21.71	113.56	76.43	90.07	73.86	25.95	31.36	132.77	5.51	71.37
460.751	32.72	22.8	23.41	27.52	14.12	21.53	114.54	75.31	89.67	73.28	25.67	31.12	134.73	5.14	72.3
461.107	33.13	23.18	23.76	28.3	14.67	21.99	116.87	75.81	90.72	73.88	26.09	31.42	137.1	5.63	73.8
461.462	32.37	22.59	23.23	27.56	14.48	21.45	114.97	74.18	89.27	73.05	25.56	30.64	136.31	5.36	72.58
461.817	32.23	22.76	23.23	27.48	14.62	21.61	115.75	74.26	88.63	72.8	25.68	30.99	136.15	5.45	72.67
462.172	31.62	21.79	22.43	27.26	14.08	21.17	112.9	72.87	87.28	71.15	25.01	30.26	134.13	5.24	71.43
462.527	31.49	22.22	22.51	27.14	14.43	20.82	114.04	73.84	88.11	72.03	25.2	30.32	135.14	5.12	71.95
462.882	31.03	21.77	22.24	26.76	14.14	20.63	111.34	72.86	86.19	70.38	25.14	29.77	131.94	4.98	70.82
463.237	30.59	21.51	22.2	26.48	14.31	20.64	110.57	72.38	86.14	69.95	24.9	29.91	130.55	5.12	70.35
463.592	30.06	21.24	21.58	26.06	13.86	20.08	108	71.08	83.9	68.48	24.26	29.38	127.81	5.03	68.5
463.947	29.93	20.92	21.46	26.11	13.74	20.09	107.09	70.25	83.72	68.49	24.21	29.06	127.1	5.07	68.44
464.301	29.7	20.68	21.06	25.92	13.45	19.76	107.29	71.73	84.19	68.91	24.14	28.89	127.61	4.56	68.45
464.656	30.12	20.88	21.42	26.25	13.73	20.15	107.9	71.69	84.53	69.71	24.76	29.29	127.81	4.92	68.63
465.011	30.16	21.31	21.62	26.3	14.15	20.38	109.26	72.78	85.73	70.26	24.72	29.73	129.88	5.23	69.98
465.366	29.45	20.92	21.15	25.65	13.82	19.83	108.01	71.08	84.41	69.43	24.69	29.09	128.72	5.02	69.27
465.72	29.49	20.8	21.04	25.42	13.71	19.85	108.66	70.72	83.79	68.69	24.53	29.2	128.44	4.86	69.35
466.075	29.45	20.49	21.19	25.64	13.79	19.65	107.45	70.23	83.02	68.19	23.97	29.2	127.7	5.09	69.07
466.429	28.97	20.67	21.05	25.59	13.7	19.48	107.8	70.75	82.8	68.13	24.29	29.2	128.12	5.1	69.2
466.784	29.51	20.71	21.4	26.17	13.95	19.79	109.85	71.3	84.19	69.03	24.4	29.37	129.44	5.03	69.85
467.138	30.1	21.22	21.73	26.12	14.22	20.06	111.05	72.41	85.52	70.2	25.06	29.82	131.62	5.22	71.46
467.493	30.03	21.14	21.72	26.36	14.34	20.19	111.16	72.47	85.56	70.22	25	30.07	132.03	5.19	71.55
467.847	29.42	20.85	21.37	25.77	14.14	20.24	112.1	72.19	85.49	70.26	25.14	29.84	133.51	5.15	71.77
468.202	29.89	21.12	21.93	26.03	14.36	20.42	112.33	72.89	86.43	70.77	25.45	30.47	134.77	5.31	72.59
468.556	29.7	20.92	21.56	25.63	14.31	20.24	112.5	72.98	85.64	70.28	25.24	30.07	133.26	5.12	72.28
468.91	29.09	20.86	21.08	25.37	14.04	20.1	110.86	71.55	85.54	69.99	24.78	29.66	132.1	5.12	71.37
469.264	28.62	20.63	20.59	25.25	13.91	19.85	109.65	71.36	84.24	69.03	24.75	29.5	130.17	4.96	70.44
469.619	28.55	20.42	20.85	25.23	13.81	19.79	109.56	71.69	84.74	69.14	24.57	29.57	130.91	4.92	70.79
469.973	28.56	20.49	21	25.04	13.9	19.84	110.31	71.52	84.82	69.64	24.72	29.53	130.68	4.93	70.91
470.327	28.94	20.66	21.19	25.02	13.99	19.89	110.76	72.53	85.4	69.52	24.87	29.73	131.74	5	71.4
470.681	28.84	20.81	21.11	25.24	13.99	19.98	110.89	72.65	85.93	70.15	24.91	30.1	132.38	5.04	71.46
471.035	28.35	20.44	21.09	24.79	14.04	19.82	110.44	72.22	85.6	70.05	25.14	29.81	131.89	5.13	71.37
471.389	28.17	20.48	20.83	24.81	13.95	19.68	109.23	71.49	84.73	69.31	24.64	29.52	131.01	5.04	70.91
471.743	27.94	20.19	20.66	24.61	13.65	19.53	109.62	71.04	84.31	69.04	24.45	29.15	130.48	4.92	70.59
472.096	27.51	20.04	20.59	24.59	13.75	19.31	109.12	71.29	84.41	69.14	24.75	29.22	130.82	5.13	70.37
472.45	27.88	20.08	20.51	24.89	13.69	19.26	110.17	71.43	84.45	68.99	24.72	29.4	131.18	5.01	70.78
472.804	27.92	20.01	20.44	24.78	13.67	19.4	110.58	71.99	85.06	69.94	24.78	29.45	131.85	4.93	70.89
473.158	28.34	20.41	20.63	25.17	14.03	19.65	112.4	72.86	86.29	71.01	25.12	29.64	134.6	5.29	72.64
473.511	28.21	20.27	20.66	24.95	13.89	19.66	113.76	73.16	86.77	71.5	25.31	29.85	136.21	4.75	73.31
473.865	28.03	20.42	20.56	24.8	13.67	19.63	112.92	73	86.29	70.7	25.24	30.13	135.82	4.83	72.87
474.219	27.84	20.22	20.45	24.75	13.7	19.49	111.94	72.59	85.9	70.51	25.15	29.81	134.82	5.09	72.41
474.572	27.4	19.82	19.87	24.22	13.46	19.38	111.59	72.52	85.31	69.72	24.68	29.36	134.39	4.72	72.27
474.926	27.04	19.79	20	24.06	13.45	19.2	109.94	71.23	84.81	69.09	24.61	29.24	131.48	4.91	71.05
475.279	26.29	19.04	19.42	23.09	12.9	18.46	108.31	70.18	83.1	67.78	24.02	28.7	129.18	4.71	69.57
475.633	26.37	19.23	19.54	23.56	13.17	18.77	108.36	70.85	83.57	68.44	24.1	28.72	129.34	4.85	69.4
475.986	25.96	19.02	19.19	23.1	12.9	18.53	107.09	70.83	83.09	68.33	24.19	28.7	128.07	4.72	68.98
476.339	26.07	19.05	19.46	23.42	13.05	18.72	107.05	71.7	83.93	68.61	24.3	29.03	128.15	5.04	69.3
476.693	26.06	19.04	19.45	23.41	12.87	18.74	107.5	71.9	83.99	68.89	24.31	29.01	129.61	4.75	69.87
477.046	26.22	19.05	19.43	23.19	13.02	18.62	108.04	71.56	84.27	69.13	24.21	29.02	130	4.64	70.08
477.399	26.14	18.86	19.54	22.97	13	18.64	107.81	71.27	83.84	68.91	24.32	28.96	128.48	4.78	69.28
477.752	25.88	18.91	19.55	23.19	13.03	18.6	107.81	71.7	84.56	69.11	24.46	29.08	129.38	4.77	69.77
478.106	25.94	19.13	19.58	23.34	12.96	18.64	108.62	71.66	84.72	69.5	24.43	29.25	130.16	4.82	70.32
478.459	26.11	19.26	19.7	23.57	13.17	18.92	110.45	72.73	85.76	70.32	24.81	29.6	132.41	4.85	71.41
478.812	26.27	19.06	19.79	23.27	13.01	18.84	111.3	73	86.5	70.6	24.73	29.69	133.16	4.76	72.03
479.165	25.78	19.02	19.22	22.75	12.78	18.85	111.1	71.96	85.48	70.03	24.55	29.41	132.92	4.72	71.52
479.518	25.77	19.07	19.67	22.94	13.05	18.82	110.06	71.65	84.99	69.88	24.74	29.53	132.93	4.89	71.4
479.871	25.09	18.56	18.79	22.5	12.48	18.16	108.92	70.82	83.88	68.85	24.01	28.46	130.96	4.45	70.54
480.223	24.91	18.32	18.77	22.2	12.42	17.85	108.09	70.41	83.15	68.36	23.99	28.43	130.22	4.81	69.81
480.576	24.51	18.32	18.72	22.12	12.57	17.97	106.04	70.28	82.71	67.58	23.85	28.53	127.59	4.77	68.76
480.929	24.22	18.12	18.4	21.94	12.41	17.59	104.95	70.06	82.01	67	23.61	28.1	126.36	4.77	68.26
481.282	24.33	18.15	18.44	22.07	12.54	17.74	104.7	70.24	82.44	67.64	23.85	28.33	125.48	4.93	68.25
481.634	23.65	17.64	18.03	21.3	12.15	17.25	102.18	69.05	80.73	66.08	23.29	27.71	122.31	4.76	66.37
481.987	22.7	17.02	17.49	20.67	11.78	16.79	99.14	67.68	79.22	64.88	22.66	27.08	119.31	4.53	65.09
482.34	21.36	16.03	16.54	19.36	11.16	15.88	92.89	64.13	74.83	61.45	21.41	25.53	111.3	4.33	60.94
482.692	20.21	15.26	15.61	18.45	10.59	14.96	86.76	61.13	70.91	58.3	20.33	24.17	103.28	4.1	57.26
483.045	20.69	15.48	15.9	19.08	10.78	15.22	86	63.25	72.35	59.88	20.86	24.97	100.23	4.28	57.8
483.397	23.58	17.6	18.06	21.9	12.18	17.08	91.95	71.92	80.83	67.63	23.63	28.59	102.24	4.65	64.5
483.75	26.09	19.61	20.02	24.13	13.5	18.99	97.68	78.61	87.58	74.27	26.22	31.62	106.68	5.28	71.09
484.102	27.11	20.54	21.04	24.6	14.12	20.09	104.64	81.12	91.9	77.19	27.5	32.65	114.74	5.54	75.06
484.454	27.36	20.84	21.34	24.12	14.48	20.68	114.33	81.12	94.74	78.21	28.05	33.11	128.05	5.81	78.07
484.807	27.43	20.79	21.34	23.66	14.73	20.87	121.01	79.94	95.51	78.06	28.13	32.9	140.37	5.94	80.07
485.159	26.65	20.46	20.93	22.8	14.61	20.43	121.97	77.39	93.37	76.15	27.24	32.3	144.38	5.85	79.48
485.511	25.63	19.66	19.99	22.22	14.27	19.7	118.95	75.3	90.11	73.82	26.21	31.1	141.98	5.6	77.29
485.863	23.63	17.99	18.59	20.74	13.08	18.12	109.68	71.18	84.76	69.09	24.44	28.99	131.22	5.11	71.64
486.215	21.86	16.61	17.12	19.59	12.14	16.73	100.79	67.98	79.85	65.46	22.91	27.31	120.34	4.68	65.89
486.568	21.23	16.13	16.68	19.4	11.85	16.12	95.69	67.16	77.69	64.08	22.38	26.86	113.41	4.59	63.26
486.92	21.35	16.26	16.82	19.57	11.92	16.28	95.43	68.82	79.2	65.13	22.8	27.18	112.34	4.6	63.61
487.272	22.18	17.06	17.42	20.47	12.4	16.86	98.04	71.4	82	67.82	23.72	28.25	114.56	4.75	65.59
487.624	22.96	17.56	18.12	20.85	12.81	17.52	101.66	73.49	84.57	70	24.52	29.17	118.83	4.92	68.24
487.975	23.98	18.47	18.97	21.71	13.54	18.33	107.67	76.32	88.6	72.97	25.81	30.52	125.99	5.29	71.8
488.327	24.45	18.83	19.29	21.95	13.92	18.9	113.4	77.65	91.43	74.98	26.54	31.09	134	5.33	75.04
488.679	25	19.29	19.82	22.17	14.39	19.48	118.19	78.48	92.89	75.91	26.99	31.68	140.6	5.56	77.35
489.031	24.74	19.22	19.71	21.74	14.45	19.29	119.92	77.54	92.63	75.4	26.82	31.47	143.45	5.5	77.73
489.383	24.17	18.68	19.25	21.3	14.22	18.88	118.92	76.08	90.89	74.29	26.23	30.83	142.76	5.4	77.27
489.734	23.13	17.9	18.5	20.81	13.85	18.12	114.38	73.5	87.85	71.9	25.47	29.93	138.41	5.22	74.79
490.086	21.51	16.79	17.22	19.36	13.03	16.82	107.05	69.52	82.65	67.92	23.88	28.28	129.42	4.85	70.06
490.438	19.76	15.34	15.7	18.04	11.9	15.59	97.57	65.42	77.09	62.98	21.98	26.02	117.65	4.53	64.17
490.789	19.05	15	15.43	17.68	11.55	14.86	92.37	64.37	74.8	61.53	21.46	25.4	110.65	4.33	61.2
491.141	19.86	15.43	15.85	18.52	12.08	15.37	94.7	68.01	78.06	64.52	22.34	26.71	112.29	4.53	63.13
491.492	21.34	16.76	17.18	19.88	13.04	16.58	101.46	73.17	83.82	69.5	24.2	28.72	119.49	4.96	67.91
491.844	22.98	18.07	18.52	21.11	14.07	18.09	110.85	77.56	90.09	74.28	26.15	30.71	131.3	5.44	73.91
492.195	23.69	18.52	19.1	21.2	14.54	18.75	117.5	78.93	92.53	75.98	26.97	31.24	140.08	5.69	77.21
492.546	23.84	18.81	19.21	21.28	15.09	19.07	121.83	77.99	93.42	76.38	27.38	31.74	145.85	5.81	79.42
492.898	23.89	18.67	19.1	21.1	15.11	18.93	124.03	77.6	93.25	76.34	27.46	31.73	149.74	5.62	80.91
493.249	23.42	18.3	18.96	20.9	14.94	18.91	124.57	77	92.88	75.54	27.1	31.67	150.84	5.58	81.09
493.6	22.96	18.26	18.74	20.72	14.64	18.55	122.94	76.23	91.82	74.8	26.75	31.17	148.36	5.55	79.75
493.951	22.17	17.62	18.04	20.43	14.67	17.92	119.58	75.06	89.31	73.11	26.11	30.42	144.42	5.53	77.63
494.302	21.51	17.37	17.57	19.82	13.94	17.05	116.61	73.94	87.78	71.56	25.41	29.62	140.95	5.17	76.11
494.653	21	16.91	17.05	19.43	13.8	16.78	114.43	73.04	86.68	70.85	25.06	29.11	137.98	5.09	74.95
495.004	20.64	16.48	16.93	18.99	13.33	16.43	111.57	72.3	84.98	70.02	24.87	28.65	135.37	5.01	73.11
495.355	19.98	16.06	16.4	18.71	13.25	16.07	108.38	70.96	83.52	68.45	24.01	28.26	131.64	4.96	71.5
495.706	19.34	15.48	15.88	17.86	12.97	15.51	104.73	69.04	81.51	67.03	23.63	27.41	127.33	4.82	69.19
496.057	19.25	15.35	15.76	17.96	13.05	15.4	103.04	68.95	80.59	66.48	23.23	27.19	124.8	4.86	68.15
496.408	19.32	15.57	15.91	18.08	12.9	15.43	103.52	70.15	81.56	67.15	23.61	27.55	125.07	4.86	68.52
496.759	19.63	15.75	16.27	18.36	13.19	15.85	107.1	72.4	84.32	69.11	24.34	28.36	129.06	4.98	70.57
497.11	20.1	16.31	16.65	18.82	13.71	16.42	109.38	73.4	85.54	70.34	24.89	28.96	131.93	5.31	72.35
497.46	19.81	16.18	16.67	18.39	13.67	16.21	110.73	72.89	85.87	70.27	24.92	28.82	133.11	5.11	72.74
497.811	20	16.18	16.61	18.39	13.75	16.23	110.94	72.92	85.76	70.02	24.92	28.94	133.81	5.26	73.09
498.162	19.85	15.95	16.25	18.34	13.66	15.94	110.68	72.65	85.63	69.92	24.9	28.65	134.16	5.07	72.85
498.512	19.66	16.04	16.33	18.5	13.75	16.08	111.46	72.91	85.98	70.38	24.9	28.88	134.98	5.19	73.46
498.863	19.98	16.36	16.73	18.63	14.08	16.36	113.51	74.21	87.08	71.56	25.42	29.35	137.18	5.35	74.93
499.213	19.68	16.01	16.52	18.31	13.87	16.19	113.97	73.99	87.16	71.28	25.16	29.04	137.72	5.34	74.92
499.564	19.63	16.04	16.48	18.11	13.72	16.07	113.44	73.14	86.56	70.63	25.08	29.01	137.4	5.21	74.83
499.914	19.25	15.75	16.03	17.88	13.74	15.68	113.04	73.12	86.37	70.57	24.82	28.85	136.98	5.18	74.5
500.265	19.34	15.75	16.24	18.12	13.73	15.59	113.77	72.99	86.4	70.81	25.23	28.81	137.94	5.26	74.81
500.615	19.13	15.81	16.05	17.84	13.85	15.8	113.47	73.22	86.57	70.92	25.28	28.87	137.97	5.34	75.17
500.965	19.06	15.95	16.18	17.86	13.61	15.74	114.02	73.17	86.74	71.02	25.05	28.87	138.04	5.23	75.19
501.315	18.61	15.39	15.63	17.37	13.61	15.42	112.16	72.1	85.15	69.97	24.51	28.35	136.28	5	74.24
501.666	18.73	15.48	15.7	17.43	13.52	15.5	112.14	72.04	85.04	69.83	24.82	28.43	136.8	5.19	74.36
502.016	18.55	15.57	15.74	17.61	13.67	15.5	112.11	72.15	85.34	70.3	24.86	28.64	136.3	5.42	74.47
502.366	18.39	15.26	15.61	17.26	13.52	15.27	112.77	72.4	85.22	70.19	24.82	28.47	136.73	5.1	74.65
502.716	18.15	15.08	15.55	17.33	13.62	15.09	110.75	71.65	84.45	69.43	24.71	28.19	134.64	5.36	73.37
503.066	17.85	14.79	15.04	16.73	13.27	14.79	109.77	71.12	84.25	68.71	24.28	27.84	133.37	5.13	72.63
503.416	18.01	15.03	15.39	16.76	13.31	14.98	109.13	70.92	83.64	68.71	24.36	28.12	132.16	5.54	72.28
503.766	17.75	14.9	15.25	16.8	13.24	14.7	108.06	71.26	83.69	68.62	24.33	27.74	130.97	5.4	72.03
504.116	17.95	15.23	15.41	16.91	13.51	14.88	110.41	72.6	85.11	69.76	24.63	28.17	133.54	5.54	73.43
504.466	18.14	15.05	15.34	16.7	13.42	14.96	111.97	73.45	85.78	70.63	24.91	28.5	135.83	5.4	74.12
504.815	18.14	15.17	15.62	16.71	13.67	14.89	113.48	73.25	86.26	71.12	25.08	28.46	137.37	5.53	75.19
505.165	17.88	14.98	15.5	16.66	13.62	14.9	112.94	72.77	86.35	70.58	25.03	28.33	137.05	5.43	75.17
505.515	17.79	14.94	15.38	16.38	13.53	14.93	112.25	72.4	85.13	70.12	24.86	28.11	136.3	5.59	74.52
505.865	17.27	14.47	14.88	16.14	13.2	14.66	111.7	71.87	85.06	69.62	24.43	27.83	135.72	5.35	73.99
506.214	17.47	14.77	15.14	16.38	13.27	14.78	112.39	72.35	85.31	70.26	24.87	28.03	135.71	5.61	74.62
506.564	17.14	14.49	14.89	16.01	13.33	14.39	110.24	71.54	83.97	69.35	24.56	27.74	133.8	5.48	73.44
506.913	16.93	14.54	14.82	15.86	13.11	14.19	109.15	71.21	83.33	68.62	24.35	27.31	132.2	5.44	73
507.263	16.52	14.06	14.23	15.42	12.56	13.89	106.69	69.97	81.95	67	23.85	26.94	129.64	5.3	71.12
507.612	16.39	13.98	14.34	15.17	12.7	13.64	105.91	69.92	81.91	67.22	23.91	27.04	128.51	5.44	70.87
507.962	16.26	13.89	14.14	15.28	12.71	13.83	105.42	70.51	81.87	67.15	23.78	26.91	128.06	5.39	70.73
508.311	16.25	13.9	14.25	15.17	12.7	13.64	105.89	70.62	82.17	67.67	23.74	26.83	127.74	5.5	71.1
508.66	16.34	14	14.36	15.06	12.9	13.8	106.7	70.91	83.06	68.15	24.06	27.12	128.91	5.47	71.28
509.01	16.6	14.24	14.65	15.48	12.99	14.15	108.16	72.05	84.07	68.99	24.71	27.51	130.56	5.74	72.33
509.359	16.25	14.03	14.51	15.27	12.92	14.01	108.55	71.72	84.62	69.09	24.46	27.37	131.45	5.73	72.8
509.708	16.58	14.41	14.71	15.44	13.15	14.18	109.32	71.94	84.54	69.4	24.6	27.71	132.58	5.95	72.81
510.057	16.5	14.43	14.8	15.49	13.23	14.45	110.83	72.58	85.62	70.2	24.92	27.95	134.39	6.1	74.05
510.406	16.46	14.41	14.68	15.37	13.13	14.07	111.09	72.97	85.81	70.48	24.92	27.77	134.82	6.01	74.23
510.755	16.2	13.9	14.47	14.97	13.04	13.83	110.34	72.02	85.22	69.83	24.77	27.69	134.15	5.83	73.84
511.104	15.81	13.7	14.12	14.63	12.71	13.37	108.76	71.33	84.11	68.78	24.24	27.07	132.31	5.75	72.72
511.453	15.95	13.79	14.05	14.77	12.89	13.59	108.73	71.29	84.1	69.37	24.33	27.11	132.37	5.73	72.82
511.802	15.9	13.8	14.17	14.7	12.92	13.61	109.27	72.44	85.01	69.88	24.52	27.35	132.73	5.76	73.26
512.151	16.09	14.07	14.45	15.04	13.22	13.79	109.97	72.53	85.11	69.5	24.86	27.38	132.77	6.03	73.42
512.5	16.06	14.08	14.46	14.98	13.24	13.9	111.02	73.16	85.69	70.51	24.92	27.87	134.56	6.14	74.43
512.849	16.23	14.08	14.67	15.13	13.2	13.93	112.87	73.49	86.67	70.84	25.17	27.81	137.02	6.29	75.56
513.197	16.12	14.33	14.54	15.1	13.07	13.89	113.28	73.76	86.58	71.23	25.25	27.88	137.92	6.33	76.06
513.546	16.24	14.12	14.37	14.9	13.18	14	114.21	73.96	87.48	71.6	25.29	27.84	138.86	6.1	76.54
513.895	15.81	14.11	14.28	14.67	12.82	13.52	113.84	73.26	86.49	70.66	25.03	27.27	138.62	6.05	75.78
514.243	15.81	13.95	14.26	14.58	13.07	13.55	114.07	72.93	86.18	70.84	25.11	27.59	138.27	6.33	76.02
514.592	15.5	13.59	14.06	14.46	12.83	13.39	114.73	73.52	86.8	71.13	24.87	27.45	139.49	5.85	76.4
514.94	15.8	13.76	14.05	14.52	12.63	13.53	113.81	72.84	86.55	71.17	25.14	27.49	137.95	6.18	76.03
515.289	15.73	13.76	13.99	14.51	12.52	13.16	112.37	72.15	85.67	70.63	25.05	27.37	136.93	6.21	75.07
515.637	15.08	13.44	13.56	14.1	12.38	13.02	111.97	71.96	85.19	70.01	24.62	26.99	136.56	5.91	75.02
515.986	14.98	13.27	13.8	13.99	12.5	12.79	110.38	71.25	84.36	69.11	24.66	26.78	134.37	6.12	73.8
516.334	15.05	13.36	13.49	13.84	12.36	12.89	108.58	70.62	83.36	68.01	24.21	26.52	132.05	6.16	72.64
516.682	14.55	13.05	13.32	13.49	12.1	12.62	106.12	69.71	82.06	67.34	23.91	25.98	128.97	5.98	71.43
517.03	14.18	12.56	12.87	13.09	11.7	12.06	103.96	69.02	81	66.33	23.27	25.54	126.16	5.76	69.77
517.379	14.17	12.59	12.84	13.17	11.56	11.92	102.47	68.2	79.98	65.79	23.38	25.19	123.79	5.93	68.73
517.727	13.88	12.39	12.73	12.86	11.45	11.96	100.14	67.65	78.79	65.03	23.05	24.96	121.28	5.91	67.26
518.075	14.03	12.45	12.62	12.82	11.42	11.85	100.44	68.62	79.4	65.88	23.16	25.09	120.89	5.89	67.84
518.423	14.23	12.78	13.07	12.96	11.69	12.21	103.24	70.78	82.29	67.82	23.89	25.79	124.91	5.99	69.71
518.771	15.02	13.49	13.77	13.79	12.36	12.95	108.02	73.49	85.44	70.6	24.91	27.19	130.68	6.53	72.67
519.119	15.36	13.74	13.96	13.95	12.63	13.25	112.43	74.56	87.41	71.88	25.64	27.6	135.57	6.66	75.27
519.467	15.27	13.8	14.03	13.73	12.71	13.17	113.41	74.21	87.52	72.13	25.69	27.39	137.36	6.76	76.03
519.815	15.31	13.6	13.86	13.63	12.54	13.1	115.13	74.13	88	72.4	25.58	27.48	139.61	6.56	76.96
520.163	15.05	13.62	13.79	13.48	12.63	12.99	115.83	74.16	88.17	72.07	25.74	27.53	140.98	6.53	77.51
520.51	14.99	13.44	13.72	13.39	12.52	13.07	116.28	74.2	88.02	72.22	25.51	27.42	141.66	6.54	77.7
520.858	14.96	13.24	13.65	13.42	12.44	12.88	114.84	73.4	87.2	71.69	25.57	27	139.67	6.62	76.83
521.206	14.81	13.17	13.48	13.29	12.25	12.62	114.43	72.98	86.86	71.25	25.49	27	139.32	6.69	76.35
521.554	14.72	13.14	13.55	13.03	12.37	12.68	112.79	72.59	86.03	70.95	25.16	26.85	138.23	6.59	75.75
521.901	14.39	12.96	13.42	13.22	12.08	12.28	112.48	71.97	85.74	70.66	25.18	26.74	137.72	6.58	75.55
522.249	14.68	12.97	13.25	13.25	12.19	12.41	112.58	72.14	85.6	70.16	24.93	26.84	137.1	6.74	75.03
522.596	14.26	12.65	12.95	12.95	11.85	12.08	112.22	71.84	85.46	69.83	24.66	26.13	136.24	6.26	74.63
522.944	13.88	12.71	12.97	12.55	11.49	11.81	110.16	71.31	84.11	69.32	24.34	25.86	134.15	6.28	73.91
523.291	14.18	12.52	12.83	12.77	11.65	12.08	110.37	71.48	84.82	69.94	24.65	26	134.38	6.27	74.02
523.639	14.13	12.64	12.86	12.42	11.65	11.78	109.83	71.66	84.23	69.42	24.49	26.03	133.67	6.44	73.71
523.986	13.84	12.38	12.8	12.43	11.37	11.75	107.89	70.81	83.3	68.27	24.27	25.63	131.31	6.43	72.52
524.333	13.37	11.97	12.35	12.09	11.08	11.35	104.14	68.6	80.77	66.43	23.59	24.73	126.2	6.24	69.93
524.681	12.85	11.55	11.62	11.5	10.68	10.9	99.55	66.91	77.92	64.47	22.55	23.82	120.57	5.94	66.98
525.028	12.9	11.63	11.92	11.49	10.64	10.9	98.62	67.37	78.18	64.84	22.71	24.03	119.23	6.09	66.62
525.375	13.22	11.88	12.3	11.97	10.91	10.98	100.98	69.57	80.92	66.5	23.51	24.83	121.68	6.28	68.11
525.722	13.84	12.35	12.74	12.25	11.43	11.52	104.98	72.08	84.03	69.03	24.4	25.71	126.37	6.65	70.7
526.069	14.09	12.69	12.97	12.36	11.62	11.88	108.07	73.05	85.8	70.58	24.99	26.24	130.85	6.77	73.12
526.416	14.18	12.8	12.87	12.35	11.68	11.9	109.51	72.94	85.98	70.4	25.15	26.09	132.27	6.76	73.13
526.763	13.82	12.41	12.78	12.02	11.56	11.63	106.74	70.74	83.33	68.43	24.45	25.34	129.08	6.71	71.41
527.11	13.25	11.84	12.19	11.58	10.93	11.2	101.63	67.94	79.95	65.92	23.38	24.29	123.15	6.5	68.38
527.457	12.08	10.73	11.03	10.48	9.94	9.99	92.78	63.29	74.22	61.27	21.45	22.39	112.33	5.84	62.86
527.804	11.58	10.37	10.68	10.12	9.48	9.57	87.28	61.53	71.41	59.11	20.61	21.6	104.5	5.63	59.55
528.151	12.58	11.33	11.49	11.08	10.1	10.18	90.51	66.85	76.27	63.29	22.31	23.44	105.65	6.12	62.92
528.498	13.8	12.42	12.73	12.06	11.03	11.21	96.93	73.03	82.88	69.25	24.46	25.78	110.02	6.72	68.61
528.844	14.96	13.43	13.7	12.9	11.97	12.14	105.79	77.94	89.18	74.37	26.57	27.56	119.75	7.29	74.65
529.191	15.69	13.84	14.17	13.18	12.51	12.95	114.76	79.46	92.86	76.8	27.66	28.52	133.33	7.76	78.87
529.538	15.54	13.6	14.07	12.84	12.74	13	118.61	78.01	92.89	76.2	27.65	28.29	141.18	7.72	80.48
529.884	15.49	13.47	13.81	12.63	12.6	12.83	121.03	77.22	92.46	75.69	27.25	28.04	145.42	7.57	81.03
530.231	15.27	13.33	13.67	12.55	12.63	12.72	120.23	75.78	90.62	74.3	26.79	27.76	144.91	7.5	80.22
530.577	14.95	13.01	13.52	12.27	12.25	12.37	119.87	75.43	90.11	73.65	26.37	27.27	145.44	7.16	80
530.924	14.79	13.03	13.36	12.31	12.21	12.32	117.8	74.29	88.4	72.44	25.98	27.05	142.2	7.32	78.2
531.27	14.5	12.69	13.07	12.19	11.8	11.8	112.57	72.54	85.85	70.91	25.28	26.36	136.79	7.16	75.8
531.616	13.94	12.3	12.68	11.73	11.19	11.19	108.49	70.82	83.33	68.94	24.64	25.44	131.7	6.86	73.02
531.963	13.44	11.84	11.98	11.18	10.84	10.8	103.9	68.56	80.46	66.58	23.63	24.31	125.69	6.56	69.77
532.309	12.67	11.12	11.39	10.62	10.04	10.05	96.79	65.25	76.28	63.01	22.46	23.1	117.2	6.23	65.21
532.655	12.44	10.86	11.19	10.52	9.9	9.85	94.18	65.49	75.71	62.37	22.11	22.69	113.09	6.24	63.9
533.001	13.15	11.65	11.88	11.15	10.29	10.25	97.73	68.99	79.61	65.65	23.29	23.94	116.76	6.63	66.33
533.348	14.29	12.63	12.8	11.97	11.18	11.05	105.64	74.45	85.83	70.92	25.29	25.84	125.78	7.03	71.71
533.694	15.21	13.38	13.72	12.45	11.8	11.94	113.49	77.65	90.79	74.62	26.95	27.22	136.06	7.51	76.68
534.04	15.51	13.61	13.86	12.56	12.25	12.23	119.04	77.4	92.47	75.43	27.32	27.74	142.99	7.77	79.67
534.386	15.54	13.53	13.7	12.53	12.25	12.38	121.13	77.1	92.54	75.31	27.31	27.84	146.35	7.62	80.93
534.732	15.34	13.28	13.67	12.48	12.25	12.02	120.08	75.74	90.45	73.92	26.56	27.19	145.76	7.63	80.15
535.078	14.8	12.75	13.03	11.98	11.68	11.55	116.76	73.11	87.94	71.84	26.03	26.17	141.96	7.14	77.94
535.423	14.02	11.87	12.35	11.29	10.96	10.83	110.48	70.05	83.8	68.71	24.53	24.87	134.09	6.7	73.88
535.769	13.37	11.61	11.92	11.05	10.45	10.38	103.45	67.42	79.7	65.59	23.39	23.84	125.77	6.56	69.43
536.115	13.45	11.55	11.82	11.08	10.27	10	100.64	67.97	79.37	65.5	23.39	23.81	121.87	6.61	67.99
536.461	14.03	12.02	12.28	11.49	10.68	10.4	103.54	71.03	82.62	68.04	24.3	24.83	125.2	6.8	70.24
536.806	14.55	12.62	12.85	11.93	11.14	10.9	108.7	73.85	86.21	71.24	25.51	25.86	131.07	7.1	73.24
537.152	15.43	13.25	13.63	12.47	11.71	11.55	115.74	76.38	89.9	74.18	26.71	26.87	139.47	7.63	77.49
537.498	15.47	13.19	13.61	12.31	11.75	11.51	117.59	76.03	90.01	74.32	26.98	26.95	142.85	7.52	78.95
537.843	15.61	13.13	13.29	12.14	11.65	11.64	118.98	75.54	89.99	73.86	26.82	26.79	145.12	7.4	79.54
538.189	15.56	13.27	13.51	12.34	11.85	11.47	118.14	75.02	89.39	73.3	26.8	26.67	144.07	7.56	79.05
538.534	15.15	12.79	13.13	12.07	11.66	11.13	115.67	72.97	87.15	71.54	25.8	25.95	141.18	7.29	77.33
538.88	15.04	12.7	12.85	12.02	11.39	10.94	114.06	72.51	86.16	70.89	25.63	25.69	139.16	7.11	76.22
539.225	14.5	12.49	12.57	11.69	10.99	10.44	110.68	71.2	84.24	69.44	24.94	25	134.62	6.94	74.04
539.57	13.91	11.93	12.05	11.3	10.37	10.07	105.19	68.31	80.73	66.71	23.94	24.06	127.6	6.76	70.66
539.916	13.35	11.34	11.53	10.69	9.88	9.52	99.33	66.01	77.82	64.15	22.97	22.9	121.21	6.42	67.22
540.261	12.64	10.78	11.03	10.11	9.4	8.94	92.12	62.67	73.46	60.72	21.68	21.69	111.91	6.17	62.47
540.606	12.51	10.58	10.81	10.02	9.15	8.61	89.14	62.49	72.09	59.73	21.25	21.24	107.04	6.13	60.6
540.951	13.17	11.17	11.35	10.59	9.43	8.99	91.9	65.86	75.52	62.56	22.39	22.32	109.88	6.33	62.79
541.296	14.37	12.04	12.44	11.36	10.35	9.76	99.4	71.53	82.01	68.03	24.36	24.32	118.37	6.89	68.17
541.641	15.7	13.11	13.4	12.21	11.18	10.66	109.09	76.27	88.36	73.29	26.43	26.22	130.11	7.45	74.19
541.986	16.03	13.38	13.76	12.33	11.51	11.19	113.91	76.46	89.78	74.04	26.96	26.57	136.6	7.74	76.89
542.331	15.87	13.26	13.53	12.19	11.44	10.97	114.91	74.82	88.78	73.05	26.55	26.1	138.29	7.56	76.96
542.676	15.44	12.77	13.03	11.94	11.13	10.73	112.26	72.62	86.35	70.68	25.64	25.53	135.6	7.32	75.31
543.021	15.5	12.82	13.15	11.93	11.24	10.68	112.23	72.96	86.32	70.98	25.69	25.38	135.6	7.32	75.31
543.366	16	13.15	13.44	12.27	11.46	10.83	115.55	75.01	88.96	72.95	26.48	26.01	139.62	7.5	77.34
543.711	16.35	13.42	13.63	12.34	11.59	10.99	117.64	75.83	89.62	73.87	26.67	26.61	141.93	7.73	78.7
544.055	16.04	13.32	13.47	12.19	11.31	10.79	117.46	74.94	89.04	73.64	26.51	26.22	142.74	7.34	78.72
544.4	16.1	13.31	13.44	12.22	11.53	10.86	115.13	73.18	87.22	71.73	26.35	25.9	139.55	7.54	77.38
544.745	15.57	12.56	12.9	11.86	10.9	10.15	112.41	71.86	85.29	70.15	25.33	24.97	137.25	7.05	75.7
545.089	15.44	12.63	12.85	11.76	10.9	9.97	109.69	70.52	83.14	68.61	24.92	24.43	133.25	7.1	73.48
545.434	15.5	12.56	12.68	11.67	10.57	9.92	107.97	70.47	83.09	68.32	24.87	24.47	131.34	6.96	72.81
545.778	15.36	12.55	12.85	11.67	10.54	9.81	107.18	70.76	82.69	68.16	24.83	24.41	130.65	7.11	72.26
546.123	14.87	12.17	12.49	11.34	10.31	9.41	105.49	69.55	81.6	67.37	24.44	23.81	127.99	6.83	70.79
546.467	15.16	12.35	12.62	11.45	10.27	9.49	104.69	69.53	81.73	67.24	24.42	24.01	127.41	7.01	70.71
546.812	16.01	12.88	12.99	12.16	10.92	9.91	108.67	72.32	84.72	70.24	25.36	24.88	131.58	7.31	73.34
547.156	16.89	13.35	13.8	12.59	11.31	10.52	114.45	75.47	88.38	73.24	26.75	26.06	138.7	7.75	76.92
547.5	17.11	13.47	13.81	12.56	11.36	10.52	117.29	75.28	89.08	73.62	27.05	26.27	142.38	7.64	78.66
547.845	17.23	13.79	14	12.89	11.58	10.73	119.21	75.05	89.54	73.64	27.27	26.19	144.62	7.84	79.36
548.189	17.13	13.82	13.82	12.66	11.47	10.46	119.59	74.45	89.43	73.55	27.02	26.19	146.3	7.6	79.64
548.533	17.07	13.27	13.69	12.39	11.39	10.28	119.12	73.55	88.12	72.48	26.86	25.84	145.25	7.47	79.45
548.877	17.07	13.46	13.62	12.86	11.41	10.43	118.17	73.69	87.86	72.12	26.67	25.98	144.84	7.71	79.05
549.221	17.04	13.19	13.61	12.49	11.23	10.19	117.99	73.55	87.76	71.81	26.44	25.51	144.48	7.35	78.56
549.565	16.72	13.04	13.35	12.48	10.81	9.9	116.52	71.89	85.68	71.03	26.14	25.53	141.52	7	77.59
549.909	16.96	13.25	13.29	12.54	10.99	9.83	114.95	71.49	85.86	70.48	26.24	25.11	141.32	7.32	76.38
550.253	16.34	12.73	12.87	11.97	10.64	9.32	112.9	71.05	84	69.14	25.47	24.72	138.87	6.96	75.16
550.597	16.92	13.26	13.49	12.64	10.94	9.7	113.59	71.4	85.24	70.25	25.76	25.1	139.58	7.39	76.41
550.941	16.75	13.18	13.42	12.44	10.93	9.7	111.88	70.77	84.54	69.26	25.97	24.55	137.59	7.31	74.73
551.284	16.58	12.71	13.07	12.19	10.42	9.4	111.21	70.07	82.76	68.6	25.32	24.29	135.82	7.01	74.29
551.628	16.38	12.37	12.7	11.84	10.29	9.19	108.51	68.39	81.02	66.74	24.85	23.46	131.47	6.94	72.67
551.972	15.79	12.19	12.51	11.72	9.85	8.69	105.95	68.42	81.01	66.33	24.3	23.35	129.05	6.61	71.26
552.315	16.49	12.5	12.87	12.06	10.37	9.18	105.16	68.97	81.12	66.65	24.55	23.82	128.38	7.02	71.07
552.659	17.38	13.18	13.58	12.62	10.8	9.44	109.11	71.25	83.68	69.02	25.69	24.5	132.16	7.45	73.03
553.003	17.97	13.75	13.89	13.15	11.24	9.96	112.29	73.5	86.56	71.19	26.55	25.49	138.24	7.73	75.47
553.346	17.83	13.62	13.92	13.06	11.15	9.65	114.12	72.8	86.14	71.29	26.49	25.56	139.32	7.64	76.26
553.69	18.2	13.98	14.11	13	11.16	10.08	116.34	73.02	87.18	72.42	26.61	25.49	142.02	7.73	77.53
554.033	18.17	13.63	13.88	12.69	11.4	9.96	115.88	72.83	86.69	70.87	26.67	25.39	142.11	7.73	77.42
554.376	18.13	13.84	14.04	12.68	11.15	9.91	117.11	73.38	86.86	71.47	26.84	25.67	142.72	7.56	78.33
554.72	18.02	13.73	14	12.81	10.95	9.74	115.83	72.38	86.01	70.9	26.33	24.97	141.55	7.44	77.22
555.063	18.52	13.85	14.07	12.91	11.2	9.6	116.35	72.15	85.77	70.96	26.53	25.23	142.44	7.92	77.45
555.406	18.28	13.43	13.86	12.98	11.15	9.44	116.29	72.68	86.39	71.33	26.57	25.14	142.37	7.51	77.35
555.749	18.25	13.97	14.12	13.08	11.35	9.49	115.23	72.3	85.17	70.82	26.54	25.13	140.91	7.71	76.69
556.093	18.3	13.2	13.68	12.59	10.82	9.38	113.49	71.26	84.17	70.06	26.05	24.73	139.53	7.25	75.54
556.436	18.1	13.53	13.63	12.81	10.94	9.5	114.58	71.78	85.18	70.17	26.29	24.46	140.62	7.12	76.48
556.779	18.45	13.63	13.78	13.03	10.86	9.24	114.79	71.91	85.36	70.41	26.41	25.13	140.78	7.45	76.24
557.122	18.62	13.91	14.28	13.2	11.19	9.55	114.37	72.03	85.46	70.26	26.66	25.18	140.57	7.65	75.95
557.465	18.73	13.9	14.14	13.18	11.07	9.52	113.76	71.27	84.52	70.34	26.32	24.92	139.68	7.65	76.05
557.808	18.6	13.94	13.96	13.31	11.02	9.57	115.16	71.86	85.42	70.36	26.39	25.03	140.99	7.43	76.88
558.15	18.79	13.52	14.02	13.06	11.06	9.29	115.96	72.24	85.1	70.45	26.55	24.74	141.52	7.37	76.82
558.493	18.94	14.05	14.41	13.49	11.21	9.65	114.86	71.92	85.75	70.6	26.87	25.09	141.27	7.71	76.6
558.836	19.19	13.85	14.03	13.29	11.36	9.57	115.67	72.25	85.78	70.68	26.91	25.33	142.35	7.56	77.51
559.179	19.23	14.09	14.3	13.36	11.44	9.66	115.76	72.24	85.58	70.66	26.84	25.63	142.41	7.64	77.18
559.521	19.11	13.95	14.18	13.41	11.21	9.58	114	71.22	84.19	69.53	26.52	24.9	139.22	7.63	75.71
559.864	18.69	13.56	13.78	13.05	10.78	9.15	112.86	70.15	83.86	68.74	26.04	24.37	138.08	7.27	74.91
560.207	19.23	14.01	14.22	13.26	11.41	9.65	111.85	70.9	83.82	69.41	26.36	24.87	137.77	7.81	75.13
560.549	18.9	13.48	14.18	13.16	10.88	9.31	110.59	69.84	82.41	68.32	25.95	24.39	135.95	7.57	74.07
560.892	19.4	13.89	14.35	13.15	11.12	9.36	112.42	71.05	83.91	69.55	26.27	24.76	137.96	7.58	74.99
561.234	19.32	13.85	14.16	13.12	11.05	9.21	112.14	71.39	84.28	69.46	26.31	24.61	137.34	7.53	74.34
561.577	19.88	14.4	14.38	13.52	11.55	9.74	114.63	72.14	85.34	71.19	27.28	25.37	140.21	7.87	76.53
561.919	20.23	14.33	14.88	13.83	11.78	9.93	115.7	72.71	85.99	71.37	27.17	25.53	141.2	8.05	77.33
562.261	20.34	14.36	14.74	13.97	11.8	9.88	116.17	72.92	86.11	71.16	27.31	25.55	142.22	8.02	77.43
562.603	20.02	14.25	14.44	13.75	11.53	9.5	115.26	71.81	85.4	70.58	26.89	25.26	141.33	7.7	76.73
562.946	20.33	14.44	14.52	13.71	11.45	9.61	114.42	71.76	84.72	70.67	27.2	25.02	140.22	7.85	77.04
563.288	20.52	14.62	14.68	14.27	11.68	9.97	113.61	70.9	84.6	69.66	26.87	25.2	139.71	8	76.13
563.63	20.64	14.47	14.64	13.83	11.74	9.64	114.36	71.78	85.27	70.29	27.08	24.98	139.86	7.93	76.47
563.972	20.12	14.21	14.57	13.67	11.58	9.44	112.74	70.74	84.03	69.2	26.64	25.07	138.38	7.96	75.99
564.314	20.19	14.04	14.44	13.24	11.36	9.41	111.15	70.28	82.59	68.61	26.43	24.39	136.13	7.6	74.08
564.656	19.84	14	14.28	13.37	11.1	8.96	110.09	69.9	83.05	68.31	26.17	24.33	135.43	7.56	73.47
564.998	19.82	13.89	14.44	13.3	11.33	9.13	107.88	69.2	81.79	67.48	26.29	24.25	131.99	7.84	72.54
565.34	19.68	13.55	13.91	13.04	10.78	9.06	105.69	68.06	80.73	66.36	25.64	23.93	129.2	7.39	70.84
565.682	20.04	14.05	14.23	13.37	11.26	9.33	106.23	69.07	81.25	67.4	25.77	23.97	129.12	7.79	71.58
566.024	20.43	14.43	14.67	13.84	11.66	9.54	106.78	70.15	82.83	68.43	26.63	24.69	130.87	8.01	72.34
566.365	20.93	14.69	14.71	13.86	11.72	9.69	109.33	71.61	84.11	69.59	26.93	25.04	133.43	8	73.95
566.707	21.71	14.98	15.32	14.55	12.16	10.14	114.23	73.2	87.16	71.65	27.61	25.64	140.09	8.1	76.53
567.049	22.21	15.14	15.59	14.44	12.21	10.19	117.29	74.4	88.53	72.76	28.18	25.98	144.1	8.33	78.53
567.39	22.16	15.33	15.74	14.68	12.47	10.42	116.97	73.02	87.06	72.13	28.05	26.35	142.81	8.52	78.34
567.732	22.05	15.17	15.33	14.43	12.15	10.09	117.4	73.04	87.3	71.97	27.95	26.02	144.43	8.2	78.6
568.074	21.87	14.78	15.17	14.35	12.06	9.52	116.08	71.95	86.01	71.11	27.44	25.78	142.56	8	77.89
568.415	22.31	15.17	15.48	14.51	12.32	10.13	115.97	72.51	85.83	71.06	28.09	25.68	142.43	8.43	77.45
568.756	21.75	14.94	15.14	14.2	11.92	9.92	112.63	70.63	83.56	69.58	27.13	25.16	138.59	8.12	75.18
569.098	21.87	14.81	15.14	13.95	12	9.89	111.93	70.82	84.42	70.02	27.17	25.22	138.42	7.88	75.3
569.439	22.1	15.1	15.42	14.42	12.32	9.99	112.89	71.74	84.85	70.23	27.52	25.8	138.57	7.98	75.34
569.78	22.15	15.3	15.37	14.78	12.28	10.04	112.42	71.53	84.86	69.86	27.14	25.4	138.5	8.21	75.65
570.122	21.91	14.97	15.02	14.26	11.92	9.53	111.46	70.57	83.62	69.28	26.96	25.36	137.09	8	74.83
570.463	21.6	14.64	14.92	13.77	11.93	9.43	109	69.29	81.64	67.81	26.36	24.51	134.08	7.76	73.59
570.804	21.67	14.51	14.94	14.19	11.96	9.59	106.31	68.36	80.86	67.11	26.29	24.55	131.27	8.14	72.05
571.145	21.76	14.63	14.93	14.35	11.9	9.72	106.16	69.06	80.87	67.23	26.33	24.38	130.15	8.04	72.29
571.486	21.55	14.7	14.85	14.13	11.91	9.58	106.12	69.24	81.6	67.55	26.31	24.44	129.92	7.76	71.7
571.827	22.71	15.03	15.53	14.52	12.46	10	108.86	71.18	83.73	69.22	27.22	25.38	132.97	8.25	73.52
572.168	22.63	15.14	15.43	14.55	12.14	9.86	110.5	71.34	84.41	69.8	27.36	25.6	135.21	8.24	74.56
572.509	23.73	15.88	16.13	15.3	12.75	10.38	113.56	73.1	86.7	71.58	27.96	26.08	139.02	8.41	76.11
572.85	24.16	15.81	15.98	15.29	13.01	10.61	115.32	73.37	87.63	72.24	28.36	26.59	142.57	8.6	77.74
573.191	23.69	15.7	16.13	15	12.89	10.32	114.91	72.38	86.48	71.44	27.95	26.14	141.17	8.5	76.97
573.532	24.08	16.2	16.47	15.21	13.1	10.7	114.58	72.23	86.24	71.25	27.99	26.26	141.42	8.66	77.47
573.873	23.53	15.56	15.95	14.9	12.57	10	111.77	70.36	84.02	69.19	27.2	25.8	137.52	8.43	75.26
574.213	23.45	15.64	15.53	14.96	12.7	10.34	109.9	70.2	82.92	68.28	27.19	25.66	135.57	8.36	74.18
574.554	23.43	15.31	15.75	15.01	12.79	10.23	108.93	69.94	82.75	68.9	27.09	25.66	133.8	8.35	73.72
574.894	23.76	15.64	15.91	15.27	13.08	10.35	109.84	70.6	83.48	68.93	27.47	25.84	134.48	8.67	74.03
575.235	24.48	15.96	16.39	15.57	13.06	10.43	111.9	72.27	85.25	71.11	27.95	26.17	137.49	8.81	75.67
575.576	24.73	16.46	16.5	15.9	13.46	10.71	114.37	73.22	86.63	71.98	28.57	26.85	141.09	8.99	77.46
575.916	25.68	16.49	16.65	15.96	13.78	10.94	116.87	74.14	87.65	72.7	28.79	27.21	144.46	8.74	78.96
576.256	25.1	16.41	16.99	16.2	13.61	10.86	115.04	72.43	86.25	71.43	28.39	26.53	141.77	9.05	77.67
576.597	25.45	16.21	16.86	16.1	13.79	10.85	115.06	72.41	85.86	71.15	28.63	26.99	142.78	8.9	77.9
576.937	25.61	16.75	17.12	16.07	14.1	10.81	116.78	72.75	86.31	71.53	28.77	26.92	142.88	8.95	78.39
577.277	25.38	16.56	16.87	16.07	13.68	10.68	115.58	71.98	86.08	71.27	28.33	26.62	142.93	8.53	78.39
577.618	25.68	16.6	17	16.02	13.98	10.73	115.9	72.05	86.28	71.11	28.55	26.91	143.4	8.78	78.28
577.958	26.45	17.3	17.58	16.75	14.29	11.42	117.2	72.91	86.9	72.02	28.83	27.23	145.36	9.24	79.51
578.298	26.04	16.8	16.83	16.37	13.84	10.7	116.4	71.38	85.03	71.27	28.33	26.79	143.15	8.79	78.53
578.638	26.69	17.14	17.36	17.01	14.52	11.01	116.51	71.84	85.75	71.04	28.67	27.31	144.59	9.26	78.7
578.978	26.47	16.73	17.22	17.15	14.51	10.91	117.29	72.55	85.75	71.49	28.79	27.39	145.56	8.84	79.58
579.318	26.39	16.69	17.09	16.6	14.1	10.76	116.66	72.14	85.91	71.09	28.45	27.16	144.86	8.79	79.06
579.658	26.6	16.96	17.28	16.98	14.2	11.07	116.23	71.18	84.9	70.95	28.47	27.15	143.48	8.88	78.56
579.998	26.65	17.39	17.43	17.26	14.74	11.34	115.35	71.63	85.08	70.5	28.97	26.92	143.25	9.06	78.47
580.338	26.21	16.75	16.71	17.03	13.99	10.74	115.95	71.32	85.04	70.26	28.35	27.03	144.66	8.72	78.29
580.678	27.38	17.39	17.75	17.44	14.48	11.35	115.28	71.32	84.5	70.21	28.7	27.14	142.64	9.28	77.98
581.017	26.96	16.93	17.4	17.31	14.32	10.48	114.62	70.96	84.32	70	28.47	27.22	142.86	8.71	77.27
581.357	27.44	17.35	17.54	17.44	14.71	11.09	115.1	71.14	84.64	70.46	28.52	26.99	142.91	9.31	78.32
581.697	27.35	17.49	17.36	17.46	14.6	10.56	115.26	71.47	84.14	70.1	28.77	27.16	143.65	9.07	77.78
582.036	28.17	17.94	17.71	17.8	14.84	11.24	117.27	72.02	85.7	71.29	29.28	27.61	145.19	9.51	79.65
582.376	27.68	17.67	17.82	18.06	15.08	11.21	115.65	71.65	85.08	70.7	29.04	27.36	143.93	9.05	78.62
582.716	28.27	17.75	18.03	18.1	14.81	11.08	116.53	71.99	85.22	71.17	28.74	27.5	145.13	9.29	78.74
583.055	28.19	17.59	17.98	17.99	14.87	11.14	116.24	71.79	84.88	70.63	28.58	27.23	144.64	9.25	79.23
583.395	28.27	17.84	17.74	17.87	14.77	10.93	115.51	71.35	84.56	70.41	28.68	27.09	144.68	9.23	79.22
583.734	28.51	17.62	17.89	18.12	14.63	10.85	115.23	71.58	84.76	70.67	28.63	27.28	143.57	9.05	78.79
584.073	29.5	18.23	18.9	18.86	15.55	11.8	115.99	71.27	85.2	70.68	29.27	27.9	144.5	9.77	79.58
584.413	28.98	17.7	18.14	18.41	15.31	11.57	113.89	70.32	83.77	69.52	28.86	27.75	142.51	9.09	77.69
584.752	29.41	18.11	18.85	18.89	15.21	11.61	115.74	71.19	85.15	70.57	28.97	27.73	143.81	9.5	79.25
585.091	29.61	18.16	18.45	19.01	15.91	11.69	114.96	70.87	84.92	70.1	28.86	27.93	143.64	9.61	78.33
585.43	29.36	18.29	18.67	19.21	15.26	11.31	115.12	71.15	84.27	70.01	28.7	27.76	143.22	9.1	78.15
585.769	29.38	18.63	18.9	18.98	15.53	11.28	116.18	71.65	84.97	70.54	28.74	27.65	143.66	9.51	78.73
586.108	29.78	18.09	18.89	19.27	15.49	11.35	115.5	71.33	85.22	70.36	28.73	27.25	144.44	9.17	78.39
586.447	30.14	18.32	18.47	19.17	15.84	11.25	115.71	70.97	85.14	69.89	28.82	27.62	144.2	9.12	78.46
586.786	30.31	18.15	19	19.38	15.27	11.42	114.57	70.48	84.12	69.85	28.64	27.38	142.98	9.26	77.82
587.125	30.44	19.09	19.21	19.93	15.7	11.86	115.53	71.35	84.89	70.71	29.09	27.96	144.51	9.55	78.57
587.464	30.68	18.88	19.22	19.68	16.27	11.73	113.57	70.3	83.63	69.66	28.7	28.1	142.14	9.75	77.92
587.803	30.33	18.55	18.85	19.65	15.68	11.12	113.59	70.14	83.64	69.34	28.47	27.43	141.69	9.21	77.42
588.142	30.39	18.68	18.84	19.01	15.51	11.2	112.97	69.77	83.11	69.16	28.27	27.1	140.68	9.1	76.96
588.481	31.34	19.18	19.29	20.16	16.18	11.37	112.95	70.55	83.78	69.94	28.59	27.78	141.46	9.42	77.73
588.819	31.55	19.59	19.97	20.67	16.89	11.94	113.32	71.67	83.97	70.64	29.2	28.13	141.22	10.03	78.07
589.158	31.17	19.27	19.22	20.56	15.65	11.68	112.36	70.06	83.34	69.43	28.56	27.46	139.76	9.82	76.97
589.497	32.25	19.43	19.95	20.73	16.6	11.86	112.98	70.96	84.54	70.24	28.86	28.02	140.6	9.85	77.36
589.835	31.94	19.24	20.13	20.98	16.72	11.58	112.96	70.69	83.59	69.3	28.87	28.41	139.89	9.77	77.49
590.174	32.97	20.11	20.64	21.51	16.77	12.17	114.49	71.56	85.04	70.98	29.37	28.47	142.37	9.89	78.5
590.512	33.25	20.09	20.43	21.28	16.91	12.06	115.47	71.78	85.97	71.14	29.14	28.88	143.42	9.98	79.18
590.851	33.39	20.55	21.09	21.95	17.04	12.27	117.31	72.26	86.5	72.03	29.55	28.93	146.55	10.28	80.42
591.189	33.9	20.51	20.92	22.04	17.36	12.28	117.89	72.59	86.37	71.41	29.69	29.2	146.79	9.86	80.48
591.527	33.65	20.9	21.23	22.67	17.42	12.67	115.86	71.39	85.08	70.72	29.6	29.04	144.28	10.4	79.41
591.865	33.43	21.07	21.2	22.76	17.27	12.34	115.58	71.42	85.3	70.65	29.3	28.85	144.19	10.2	78.93
592.204	34.43	20.62	21.27	22.21	16.98	11.94	115.32	70.61	84.72	70.22	29.42	28.72	144.61	10.08	79.22
592.542	34.25	20.91	21.47	22.88	17.48	12.3	116.26	71.53	85.49	71.32	29.46	29.2	144.71	10.19	79.33
592.88	33.98	20.53	21.62	23.18	17.32	12.44	113.85	70.24	83.3	69.47	28.7	28.66	141.9	10.03	77.86
593.218	34.03	20.97	21.15	23.09	17.2	12.47	112.12	69.66	83.14	68.86	28.88	28.4	140.46	9.77	76.69
593.556	33.76	20.44	20.96	22.93	16.99	12.14	111.09	69.71	82.54	68.51	28.73	28.29	139.37	10.12	76.33
593.894	34.17	20.9	21.05	23.11	17.72	12.35	110.14	69.35	82.48	68.6	28.6	28.11	137.85	10.41	75.1
594.232	35.81	21.54	21.92	24.12	17.88	12.41	113.92	71.84	85.75	70.81	30.12	29.26	142.91	10.33	78.45
594.57	35.69	21.77	22.1	24.08	17.73	12.41	113.57	71.39	84.56	70.55	29.4	28.88	142.91	10.33	78.65
594.908	36.48	22.02	22.45	24.45	18.02	12.63	113.97	71.42	84.83	70.51	28.98	29.28	143.25	10.59	78.95
595.246	35.04	21.15	22.05	23.73	17.42	12.12	111.73	70.03	83.38	69.18	28.89	28.27	139.6	10.18	77.52
595.583	35.06	21.56	21.6	23.72	17.51	12.26	109.97	68.87	81.97	68.09	28.62	28.12	136.72	10.31	75.15
595.921	33.83	20.36	20.92	22.97	16.56	11.53	104.4	66.71	79.04	65.74	27.21	27	131.73	9.61	71.78
596.259	33.74	20.11	20.55	22.94	16.52	11.48	102.45	66.22	78.23	64.59	27.22	26.48	128.17	9.61	70.99
596.596	34.37	20.6	21.25	23.42	16.66	11.87	102.74	67.3	79.22	65.76	27.13	27.03	127.87	9.8	70.66
596.934	36.97	22.16	22.61	25.18	18.17	12.83	107.75	71.19	83.4	69.09	29.33	28.78	134.1	10.77	74.91
597.271	38.9	23.22	24	26.34	18.99	13.38	114.72	74.41	87.29	72.78	30.69	30.09	143.12	10.86	79.3
597.609	40.52	24.44	24.71	27.42	19.59	13.78	119.63	74.77	89.39	74.22	31.21	31.22	148.12	11.58	82.15
597.946	39.95	24.55	24.91	27.04	19.42	13.73	119.22	73.86	88.19	73.22	30.61	30.31	149.91	11.41	82.18
598.284	40.64	24.66	25.19	27.49	19.82	13.87	121.06	74	89.2	73.43	31.25	30.91	151.78	11.49	83.15
598.621	39.88	24.57	24.74	27.33	19.24	13.47	119.61	72.56	87.49	72.66	30.27	29.92	149.95	10.83	81.83
598.958	40.43	24.48	24.93	27.45	19.9	13.59	119.55	71.94	87.08	71.87	30.35	30.04	149.88	11.54	81.24
599.296	39.78	23.98	24.29	27.53	19.35	13.25	117.8	71.84	85.69	71.64	30.01	29.66	148.04	11.32	81.38
599.633	40.52	24.08	24.64	28.29	20.02	13.24	118.73	72.27	87.01	71.81	30.08	30.5	149.54	11.13	81.69
599.97	40.6	24.08	24.58	28.29	19.38	13.3	116.87	71.61	86.1	71.39	30	29.69	147.58	10.9	81.03
600.307	40.12	23.75	24.14	27.89	18.9	12.77	116.19	71.18	84.8	71.02	29.78	29.96	146	10.58	80.43
600.644	39.96	24.03	24.77	28.33	19.2	13	115.37	71.19	85.13	70.33	29.48	29.58	145.14	10.59	79.78
600.981	40.01	24.33	24.36	28.65	19.07	13.31	113.62	70.81	83.98	69.78	29.51	29.43	142.38	10.79	79.15
601.318	40.25	24.29	24.57	29.11	19.29	13.33	113.29	70.39	84.09	69.49	29.51	29.64	142.23	10.98	78.05
601.655	40	23.91	24.45	28.24	19.43	12.77	112.11	69.35	83	68.4	29.02	28.66	141.08	10.45	77
601.992	40.04	23.97	24.57	28.23	19.26	13.11	109.72	68.97	81.57	68.16	28.55	28.8	138.76	10.72	76.41
602.329	38.71	23.11	24.22	27.77	18.56	12.79	105.89	66.98	79.55	65.59	28.02	28.01	133.14	10.36	74.14
602.665	39.71	23.3	23.99	28.24	18.1	12.77	105.61	67.49	80.25	66	28.12	28.18	132.59	10.26	73.18
603.002	40.94	24.03	25.11	29.3	19.17	13.6	107.06	69.34	81.83	68.05	28.85	29.35	134.59	10.97	74.69
603.339	41.05	24.76	25.17	29.77	19.59	13.69	107.62	69.57	82.08	68.06	29.36	29.08	134.85	11.12	74.81
603.675	40.78	24.85	25.01	29.54	19.2	13.15	106.19	68.34	80.79	67.51	28.77	28.72	133.5	10.97	73.49
604.012	40.6	24.42	24.8	29.32	19.04	13.08	104.9	68.06	80.15	66.51	28.39	28.61	131.48	10.74	73.27
604.349	41.66	24.86	25.23	30.3	19.54	13.57	105.86	69.09	81.65	67.49	29.05	29.19	131.84	11.1	73.31
604.685	43.39	26.06	26.44	31.49	20.32	14.38	109.92	71.03	83.56	69.4	29.91	30.13	136.81	11.56	76.43
605.022	45.67	27.39	28.18	32.83	21.52	15.2	116.13	74.23	87.59	73.3	31.33	31.6	144.92	11.91	80.52
605.358	45.91	27.78	28.38	33.08	21.43	15.03	118.19	74.6	89.04	73.06	31.65	31.76	148.55	11.96	81.75
605.694	46.68	28.63	28.92	33.59	21.91	15.31	119.42	74.25	88.89	73.56	31.61	31.98	150.89	12.05	83.04
606.031	47.22	28.58	29.2	34.15	22.37	15.78	121.18	74.4	89.25	74.15	31.48	32.34	152.94	11.99	84.4
606.367	46.61	28.29	28.99	33.76	21.82	15.36	120.41	73.35	88.09	72.46	31.51	31.34	150.76	11.72	82.93
606.703	46.41	28.08	28.68	33.89	21.49	14.71	118.65	72.99	87.22	72.27	30.99	31.07	149.33	11.96	82.45
607.039	46.55	28.14	29	34.12	21.64	15.29	117.25	71.62	86.31	71.43	30.82	31.03	148.01	11.7	81.38
607.375	46.22	27.96	28.74	33.89	21.24	14.9	116.45	71.87	85.46	70.3	30.48	31.01	147.64	11.52	80.8
607.711	45.02	26.94	28	33.29	20.65	14.71	113.31	70.46	83.54	69.25	29.49	29.86	143.66	10.84	78.62
608.047	44.12	26.87	27.34	33.29	20.68	14.21	109.34	68.74	81.13	67.85	29.2	29.26	137.57	11.09	76.19
608.383	43.39	25.64	26.33	31.93	19.87	13.91	104.93	66.86	78.72	65.91	28.1	28.62	132.56	10.7	73.08
608.719	43.5	26.06	26.56	32.55	19.96	13.92	103.7	67.25	79.23	65.75	27.91	28.8	130.77	10.52	72.71
609.055	44.32	26.41	27	33.39	20.47	14.24	103.17	67.78	79.94	66.44	28.74	29.17	130.53	11.16	72.67
609.391	46.19	27.75	28.26	34.54	21.02	14.86	107.81	70.04	82.75	68.61	29.67	30.01	135.53	11.27	75.4
609.727	49.19	29.35	29.65	36.4	21.88	15.67	114.41	73.39	86.81	71.95	31.25	31.64	143.04	11.8	79.67
610.062	49.14	29.53	30.16	36.83	22.53	15.73	115.06	72.62	86.49	71.67	31.36	31.88	145.06	11.9	80.14
610.398	50.13	30.61	30.59	37.24	22.52	16.08	117.88	73.58	87.4	72.85	31.28	31.81	147.76	11.62	81.68
610.734	50.18	30.55	30.72	37.73	23.05	16.54	117.9	73.22	87.98	72.96	31.25	32.23	149.01	11.99	82.06
611.069	50.37	30.41	31.32	37.72	22.82	16.31	119.97	73.8	88.28	73.05	31.36	32.08	151.78	11.78	82.95
611.405	50.04	30.96	31.26	37.8	22.85	15.9	118.44	72.48	86.67	71.75	30.77	31.8	149.84	11.86	82.61
611.74	50.52	30.45	31.61	38.3	22.87	16.26	117.89	72.31	86.14	71.82	31.22	32.05	148.89	11.97	81.74
612.076	50.95	30.32	30.83	37.7	22.82	16.61	117.71	71.65	85.88	71.7	31.66	31.84	148.55	12.08	82.23
612.411	50.8	30.73	31.48	38.02	22.63	16.57	117.88	71.97	85.81	71.43	31.16	31.96	149.52	11.38	82.31
612.747	50.49	30.98	31.68	38.57	22.96	16.81	117.46	71.83	86.16	71.37	31.57	32.31	148.96	11.92	82.16
613.082	50.81	30.6	30.86	38.4	22.77	16.17	116.98	70.93	85.54	70.96	30.74	30.95	147.92	11.12	81.3
613.417	51.08	30.75	31.33	39	22.92	16.49	116.38	70.88	84.98	70.64	31	31.6	149.1	11.76	81.27
613.752	51.15	30.83	31.3	38.58	22.67	16.35	117.06	71.03	85.28	70.91	30.5	31.74	148.21	11.34	81.09
614.087	51.44	31.14	31.54	38.74	23.62	16.75	116.84	71.08	86.18	71.36	31.25	31.93	147.77	11.99	81.28
614.423	52.49	31.68	32.18	40.29	22.86	17.02	118.35	71.71	86.43	71.71	31.71	32.25	150.23	11.51	82.77
614.758	52.07	31.43	31.59	39.82	23.11	16.27	116.48	70.78	85.12	71.54	30.8	31.77	147.57	11.08	81.09
615.093	52.37	31.58	31.58	40.24	23.27	16.63	117.52	71.38	85.15	70.72	30.93	31.58	149.18	11.67	81.17
615.428	51.6	31.29	31.82	40.15	23.12	16.99	114.92	70.02	84.06	70.34	30.49	31.76	146.26	11.15	80.43
615.763	52.26	31.65	32.05	40.86	23.03	16.99	117.91	70.85	85.32	70.68	30.66	31.83	148.38	11.5	81.67
616.097	53.03	32.21	32.98	40.94	23.82	17.61	117.62	71.85	85.62	71.4	31.52	32.55	149.59	11.36	81.99
616.432	52.2	31.82	32.56	40.82	23.17	17.38	117.33	71.17	85.01	70.96	31.05	31.86	148.42	11.76	81
616.767	52.77	32.02	32.63	41.22	24.18	17.56	116.29	70.87	85.12	70.31	30.93	32.04	147.52	11.77	80.97
617.102	52.55	31.92	32.44	40.86	23.48	17.01	116.48	70.32	84.39	70.43	30.77	32.36	148.54	10.92	80.97
617.436	53.1	32.61	32.47	41.65	23.51	17.29	115.59	70.43	83.65	69.62	30.7	31.33	146.7	11.24	80.05
617.771	53.52	32.15	32.47	41.37	22.91	17.19	114.77	70.2	83.83	69.29	30.72	31.63	145.92	11.27	79.79
618.106	53.35	32.1	33	41.54	23.14	17.5	115.48	70.04	84.09	70.28	30.81	32.01	146.43	11.25	80.55
618.44	54.85	33.25	33.68	42.88	24.38	17.77	117.69	70.63	85.79	71.03	31.37	32.69	150.42	11.57	81.62
618.775	55.1	32.85	33.77	42.53	24.22	18.18	116.93	70.7	84.93	71.43	30.79	32.48	149.05	11.61	81.84
619.109	54.77	32.97	33.31	42.84	23.93	18.06	118.5	71.14	85.52	71	31.15	32.19	150.78	11.63	81.46
619.444	54.76	33.2	33.44	43.08	24.27	17.99	117.1	70.98	85.05	70.85	31.06	32.33	149.87	11.06	82.47
619.778	55.47	33.21	33.98	43.32	24.07	18.34	117.64	71.08	85.46	71.26	31.27	32.36	149.33	11.48	81.6
620.112	56.22	34.12	34.23	43.58	24.54	18.54	118.1	71.2	85.84	71.53	31.84	33.04	151.38	11.35	82.27
620.446	56.55	34.55	34.96	43.45	25.03	19.25	117.05	71.21	85.09	71.4	31.95	33.32	149.22	12.05	81.93
620.781	56.48	34.36	34.4	44.29	24.53	18.93	117.61	71.3	85.14	70.78	31.33	32.77	149.61	11.77	81.54
621.115	56.72	34.35	34.74	44.76	24.39	19.23	118.59	71.54	85.95	71.44	31.09	33.31	152.05	11.69	82.01
621.449	56.59	34.96	34.96	44.83	24.66	18.93	117.54	71.62	85.11	71.08	31.55	33.32	150.39	12.17	82.08
621.783	56.53	33.91	34.66	44.56	24.16	18.97	117.84	71.42	85.28	70.56	30.92	32.62	150.36	11.48	81.75
622.117	57.21	34.29	35.18	44.77	24.96	18.9	117.57	71.28	85.71	71	31.42	33.18	150.68	11.17	82.55
622.451	56.16	33.93	34.24	44.58	24.61	18.6	116.99	70.69	85.55	70.49	31.09	32.39	148.45	11.05	81.33
622.785	57.41	33.8	35.19	45.32	25.21	19.17	116.82	71.01	85.09	71.18	31.96	33.21	149.43	11.65	81.45
623.119	57.02	34.59	34.69	45.29	24.93	19.4	116.29	71.47	84.69	70.68	31.6	33.05	148.26	11.51	80.12
623.453	57.06	34.06	35.31	45.42	24.8	19.2	116.18	70.38	84.48	70.43	31.59	33.16	147.9	11.44	80.28
623.786	56.72	34.74	35.07	45.6	24.86	19.47	116.26	70.61	85.03	70.53	31.01	32.23	148.39	11.5	81.21
624.12	56.74	34.66	34.8	45.09	24.68	19.32	114.62	70.33	83.91	70.62	30.94	32.76	148.11	11.09	80.44
624.454	56.85	34.12	34.51	45.11	24.5	18.89	115.32	70.28	84.17	70.38	30.68	32.69	147.41	10.87	80.28
624.787	56.45	34.3	34.45	44.47	24.08	18.89	112.02	68.67	82.69	68.56	30.06	32.09	143.44	11.63	77.99
625.121	56.4	33.88	34.36	44.9	24.38	18.84	111.51	68.28	82.06	68.8	30.49	31.74	143.13	10.77	78.09
625.454	55.51	33.37	34.14	44.32	24.34	18.93	109.08	67.84	80.77	67.34	30.02	31.74	139.02	11.03	75.92
625.788	55.07	33.11	33.88	44.24	24.3	19.42	108.24	67.93	80.8	67.27	30.19	31.58	138.41	10.76	75.71
626.121	55.75	32.97	33.97	44.22	23.62	18.65	107.85	68.4	80.43	67.29	29.7	31.69	136.87	10.7	74.87
626.455	57.67	33.79	34.74	45.6	24.02	19.36	108.65	69.83	82.19	68.63	30.46	31.91	138.58	11.33	76.57
626.788	58.44	35.12	35.35	46.33	24.61	20.19	111.25	70.78	84.3	69.89	31.4	32.98	142.23	11.66	77.92
627.121	59	35.78	36.09	47.29	25.52	20.54	113.15	71.12	85.18	70.37	31.51	33.32	144.5	11.66	79.32
627.455	61.12	36.86	37.57	48.73	25.95	21.1	117.3	72.73	87.29	72.63	32.41	34.03	148.79	12	81.82
627.788	60.84	36.71	37.96	48.02	26.38	20.57	117.08	72.54	86.84	72.29	32.76	33.63	149.26	11.93	82.12
628.121	61.87	37.83	38.08	49.36	27.06	21.22	119.68	73.39	88.24	73.04	32.7	34.34	153	12.22	83.24
628.454	60.16	36.49	37.52	48.53	26.05	20.75	117.17	71.39	85.71	71.3	32.04	33.91	150.31	11.38	81.13
628.787	60.33	36.41	37.28	47.76	25.64	20.58	116.26	70.76	85.33	71.1	31.32	33.41	148.06	11.49	80.36
629.12	60.27	36.58	36.81	48.07	25.5	20.3	116.4	70.77	84.75	70.25	30.88	33.07	148.39	11.54	81.15
629.453	61.21	36.9	37.59	49.15	26.2	21.09	118.43	71.68	85.58	70.95	32.03	34.05	149.54	11.9	82.17
629.786	61.2	36.8	37.48	49	25.81	21.38	116.38	71.23	84.26	70.89	31.7	33.9	148.21	12.27	81.09
630.119	61.8	37.44	37.71	49.08	25.91	21.04	118.21	71.88	86.08	71.32	32.23	34.13	150.35	11.62	81.93
630.452	61.29	37.32	37.52	48.57	25.93	20.47	116.57	71.3	85.54	70.65	31.72	34.25	150.04	11.23	81.57
630.784	61.49	37.26	38.47	49.27	26.17	21.73	118.18	72.21	85.66	71.48	31.56	34.04	151.39	11.75	81.72
631.117	61.84	37.05	38	49.66	26.1	20.8	117.47	70.78	85.54	71.51	31.74	33.7	150.43	11.45	82.1
631.45	61.91	37.65	38.16	50.28	26.07	21.3	118.16	71.63	86.11	71.54	31.67	33.85	152.76	11.11	82.09
631.782	60.96	36.48	37.87	48.8	25.67	21.02	116.22	70.15	84.42	70.18	31.37	32.99	148.36	11.25	80.32
632.115	61.63	36.9	36.86	49.21	25.67	20.4	116.29	70.41	84.07	70.16	31.52	33.77	149.05	11.22	80.47
632.448	62.19	37.02	37.9	49.94	26.12	21.51	116	70.82	83.39	71	31.52	33.93	148.6	11.74	79.93
632.78	60.72	36.52	37.07	49.57	25.57	20.7	113.78	70.03	83.04	69.29	30.68	33.6	147.43	10.48	79.12
633.112	60.01	36.49	37.07	48.42	25.06	20.36	112.17	69.43	82.3	68.45	30.54	32.93	144.13	11.05	78.84
633.445	60.4	36.18	36.93	49.11	25.3	20.64	111.07	68.89	82.25	68.22	30.64	32.84	142.12	10.89	77.5
633.777	61.08	37.6	37.28	50.5	26.14	21.72	112.21	70.46	84.53	69.88	31.6	33.81	143.97	11.55	78.64
634.109	62.99	38.36	38.85	50.97	26.57	22.07	115.17	71.51	85.16	71.14	31.93	34.48	147.49	11.68	79.86
634.442	63.92	38.48	39.25	51.62	26.31	22.5	116.4	71.6	85.64	71.29	32.07	34.44	149.3	11.56	81.62
634.774	63.86	38.9	39.12	51.25	26.54	22.42	116.48	71.29	85.36	70.69	31.93	34.09	149.44	11.61	81.05
635.106	64.25	38.71	39.55	51.8	27.1	22.66	116.87	70.98	86.38	70.99	31.89	34.51	150.4	11.78	81.06
635.438	63.21	38.31	39.03	51.14	25.89	21.85	115.59	69.87	83.97	70.84	31.31	34.42	148.48	11.92	80.78
635.77	63.99	39.12	39.7	52.06	26.89	21.95	117.53	71.16	85.32	71.06	32.04	34.27	150.73	11.32	81.65
636.102	62.76	38.5	39.14	51.16	26.19	21.62	115.47	70.35	84.04	70.44	31.54	34.43	148.74	11.18	80.24
636.434	63.58	39.07	39.71	51.43	26.21	21.8	115.39	70.93	84.9	70.91	31.74	33.96	148.84	11.26	80.39
636.766	64.22	39.73	39.7	52.31	26.42	22.84	116.3	71.45	84.76	70.59	32.11	35.09	149.76	11.88	81.33
637.098	64.97	39.29	39.64	52.65	27.07	23.06	116.68	71.9	85.16	70.75	31.95	34.84	150.01	11.33	81.04
637.43	64.09	38.84	39.81	52.6	26.6	22.84	116.75	70.99	84.79	70.65	31.62	34.96	148.74	12.08	81.87
637.761	66.12	39.89	41.78	53.76	27.39	22.67	119.48	72.41	86.78	72.35	32.62	35.51	153.07	11.67	82.79
638.093	64.66	40.29	40.77	53.28	26.66	22.08	117.32	72.07	85.71	71.57	32.07	34.91	152.12	10.81	81.85
638.425	63.79	39.16	39.24	53.03	26.55	22.47	115.01	69.7	83.3	69.59	31.7	34.16	148.49	11.01	80.61
638.756	65.35	40.16	40.81	53.21	27.17	23.21	117.36	70.41	85.78	71.24	31.94	35.28	150.92	11.56	81.53
639.088	66.81	41.31	41.88	54.41	28.09	23.44	118.93	72.16	86.2	71.9	32.71	36.09	152.37	11.8	83.33
639.419	65.68	40.43	40.73	54.68	27.59	23.09	118.31	71.84	86.91	71.74	32.24	34.73	153.65	11.37	82.41
639.751	65.53	40.44	40.81	53.97	27.74	23.13	116.54	71.08	85.75	71.61	32.49	35.24	149.39	11.85	80.97
640.082	65.43	40.49	40.14	53.67	26.97	22.98	115.93	70.53	84.45	70.32	32.57	34.73	149.59	11.09	81.12
640.414	65.2	41.55	41.49	54.5	27.66	23.82	117.18	70.98	85.49	71.8	32.61	35.61	151.01	11.54	82.6
640.745	67.1	41.38	41.81	54.68	27.27	23.2	118.65	71.07	85.54	72.01	32.31	35.45	151.72	11.62	82.36
641.076	65.59	41.32	41.73	54.79	27.52	23.7	117.92	71.31	85.16	71.69	32.33	35.4	152.04	11.29	81.98
641.407	66.32	40.77	41.62	55.18	27.83	23.52	117.91	71.55	85.43	71.67	32.74	35.03	152.14	11.25	82.06
641.739	66.68	40.97	40.81	54.61	26.9	23.02	117.48	70.63	85.74	71.12	31.91	35.27	152.98	11	81.61
642.07	66.79	40.79	42.06	55.92	28.13	23.85	117.78	71.01	86.04	71.3	32.26	35.3	152.36	11.46	82.16
642.401	66.82	40.78	41.87	54.79	27.05	23.3	116.39	70.2	85.18	70.49	32.1	34.68	150.38	10.82	80.97
642.732	67.49	40.52	40.74	55.37	27.37	23.54	117.76	70.67	84.63	69.68	31.38	34.67	152.42	10.66	81.72
643.063	66.21	40.98	41.28	55.55	27.53	22.98	116.79	70.71	84.96	70.13	31.25	34.73	152.14	10.19	81.36
643.394	66.12	40.34	41.43	55.16	26.79	22.78	116.09	69.33	83.53	69.92	31.3	34.99	149.81	9.83	80.66
643.725	67.32	42.19	42.25	55.81	27.5	23.63	118.7	70.39	85.02	71.56	32.27	35.47	152.47	10.77	82.18
644.055	68.24	42.07	42.62	56.43	27.76	23.71	119.37	71.5	85.62	71.52	32.89	35.75	154.95	10.22	82.79
644.386	68.17	41.53	42.01	56.3	27.48	23.36	119.03	71.24	85.7	71.14	31.66	34.86	154.42	10.48	83.07
644.717	67.53	40.93	41.32	55.8	27.55	23.15	117.88	70.52	84.79	70.27	31.95	35.34	153.16	10.41	82.02
645.048	67.57	41.14	42.56	55.82	27.42	23.77	116.01	70.02	84.4	69.18	31.75	35.12	151	10.53	80.93
645.378	66.86	40.65	41.73	55.58	26.55	22.94	116.49	68.83	83.62	69.06	30.49	33.71	150.02	9.95	79.94
645.709	68.75	41.84	43.02	56.51	27.19	23.77	117.33	70.87	85.02	71.1	32.52	35.36	152.98	10.74	82.4
646.039	67.7	41.32	41.57	55.69	26.98	23.4	115.85	69.28	83.77	69.48	31.12	34.85	150.72	10	80.59
646.37	68.43	41.73	42.72	57.25	27.22	23.72	116.9	69.98	84.44	70.31	31.75	34.45	152.13	9.8	81.77
646.7	69.13	42.77	43.71	57.65	28.35	24.66	117.67	70.46	86.25	71.52	32.8	35.9	152.75	10.16	82.6
647.031	68.7	43.33	42.9	58.23	28.23	23.45	118.01	69.92	85.24	70.81	32.23	35.1	153.2	10.17	81.98
647.361	69.5	43.39	44.82	58.24	28.01	24.33	119.4	70.8	85.71	70.72	31.8	36.51	154.01	10.77	83.02
647.691	69.25	43.28	43.93	57.98	27.81	24.2	117.19	70.22	84.4	69.96	31.84	35.11	152.97	10.11	81.36
648.022	69.28	42.67	43.51	58.98	28.11	24.42	117.76	71.36	85.28	70.48	32.45	35.48	153.41	10.48	81.87
648.352	70.86	42.72	43.42	58.46	27.25	23.84	117.77	70.9	85.28	70.98	32.99	36.06	153.76	10.31	82.41
648.682	70.83	43.46	43.73	59.79	28.36	24.4	118.49	70.97	85.56	71.59	33.6	36.41	153.98	10.46	82.12
649.012	69.99	43.59	43.7	59.4	27.99	24.58	117.42	70.55	83.49	70.5	31.68	35.51	153.45	9.97	81.45
649.342	70.06	43.51	44.51	59.39	28.39	25.17	117.03	70.42	84.82	70.8	32.11	35.96	152.63	10.95	83.08
649.672	68.92	42.71	43.3	58.32	27.63	23.45	115.42	69.25	84.03	68.99	31.65	34.64	150.04	9.85	79.88
650.002	68.72	42.05	42.98	57.98	26.81	23.5	114.87	69.09	82.67	68.91	31.18	34.11	149.2	9.23	79.43
650.332	69.58	43.54	44.64	58.6	27.82	24.63	114.89	70.6	83.9	69.77	31.8	35.65	149.54	10.8	80.78
650.662	69.3	42.62	42.94	58.12	27.02	23.69	113.4	69.53	83.23	69.1	31.63	34.81	148.4	9.31	79.25
650.992	70.36	43.81	45.32	59.89	28.24	24.35	115.52	70.82	85.17	70.44	32.44	35.52	148.65	10.69	79.85
651.321	70.17	43.57	44.94	60.01	28.12	23.61	115.14	70.37	84.28	69.48	32.05	35.23	150.53	9.55	79.83
651.651	70.44	44.3	45.5	59.72	28.54	25.52	114.96	70.97	84.61	70.47	33.09	36.15	149.22	10.52	80.19
651.981	70.74	43.77	43.7	59.67	27.94	24.2	115.2	70.1	84.07	70.33	31.32	35.21	148.44	9.53	80.3
652.31	72.05	45.19	46.1	60.6	29.21	24.95	117.52	72.34	85.65	71.34	32.44	36.6	152.43	10.15	81.4
652.64	71.64	43.81	45.16	61.02	27.8	23.9	116.98	70.64	85.43	71.3	31.52	35.66	151.65	9.84	81.1
652.969	72.69	44.9	45.82	60.92	29.19	24.64	116.46	71.56	85.65	71.35	33	35.42	151.99	10.78	81.53
653.299	73.47	45.91	46.28	61.75	28.84	24.78	118.02	71.42	86.03	72.14	32.96	36.48	153.85	10	83.33
653.628	72.26	46.72	46.75	61.77	28.59	25.82	117.31	71.48	85.88	71.06	32.79	36.28	152.6	10.41	81.4
653.958	71.98	44.88	46.59	62.44	29.07	25.17	117.17	70.58	85.41	71.04	32.96	36.34	153.63	10.46	81.95
654.287	73.12	45.91	46.38	62.41	29.26	26.06	118.18	70.69	86.6	71.26	32.71	36.74	153	10.29	82.23
654.616	71.16	45.02	45.75	60.59	28.23	24.77	114.31	68.73	82.92	69.53	32.08	35.83	147.94	10.52	79.41
654.946	70.96	44.8	45.7	61.12	27.3	24.25	115.1	68.9	83.5	69.56	31.28	35.33	149.59	10.07	80.31
655.275	73.34	47.31	47.26	63.29	29.36	26.2	119.36	72.07	86.01	72.27	33.12	36.56	153.58	10.13	82.94
655.604	72.11	45.37	46.13	61.8	28.64	25.41	115.52	70.46	83.69	70.25	32.59	35.94	150.04	10.23	80.83
655.933	72.75	46.24	46.86	62.67	28.81	25.46	116.41	71.11	85.08	70.58	32.59	36.12	151.01	10.08	81.42
656.262	72.78	45.93	46.14	62.47	28.59	24.75	116.73	70.52	85.47	69.33	31.15	36.07	151.17	9.3	80.44
656.591	72.85	45.83	46.48	61.85	28.53	24.39	115.61	69.85	84.35	70.2	32	35.18	152.02	8.78	80.56
656.92	72.55	45.71	47.69	62.46	29.13	24.64	115.19	69.82	83.78	70.37	32.41	36.14	149.21	9.23	79.76
657.249	70.43	44.53	45.63	61.22	28.31	24.02	111.99	68.86	82.65	68.31	31.16	34.4	145.08	8.98	77.16
657.578	71.45	45.34	46	62.01	28.33	24.7	113.36	70.1	83.47	69.07	31.75	34.72	147.05	10.16	78.18
657.906	69.07	44.05	43.69	59.16	26.5	23.66	107.92	66.72	80	66.89	29.94	33.78	141.08	8.44	75.23
658.235	69.07	43.37	44.52	59.6	27.22	23.5	105.95	67.63	79.95	66.48	30.58	34.39	137.75	9.76	74.34
658.564	68.46	42.74	43.44	58.95	26.3	23.26	104.62	67.39	79.41	66.28	29.25	33.44	135.75	8.59	72.97
658.892	70.42	44.02	44.91	61.02	27.7	24.13	106.85	68.82	81.45	67.04	31.22	35.11	137.88	9.65	74.06
659.221	72.73	44.87	46.31	62.04	27.94	24.23	110.77	70.22	83.65	68.98	31.21	34.95	142.3	8.69	76.38
659.55	76.53	48.32	49.39	65.82	29.72	26.42	117.77	74.16	87.64	73.17	33.3	37.44	149.93	10.05	80.61
659.878	77.18	48.6	50.01	65.68	30.35	26.8	116.4	72.9	87.65	72.98	33.44	37.87	151.29	10.94	80.65
660.206	76.51	48.71	49.51	64.71	29.23	25.19	117.83	72.24	87.68	72.42	32.75	37.22	152.9	9.38	80.99
660.535	76.39	48.65	50.11	65.18	29.84	25.54	119.78	72.52	87.9	72.79	33.8	36.69	156.75	9.55	81.73
660.863	75.79	49.05	49.24	65.33	28.6	25.55	119.33	72.12	86.68	72.31	32.84	36.53	154.06	9.1	81.42
661.191	75.89	48.03	48.66	64.37	28.67	25.75	116.67	70.81	85.91	70.96	32.43	35.88	151.74	8.96	81.63
661.52	76.5	49.49	49.59	65.48	29.9	25.3	118.57	72.51	87.72	71.78	32.82	37.04	155.19	9.61	82.06
661.848	76.42	49.59	50.95	66.48	30.13	26.21	117.99	72.64	86.98	72	33.65	37.74	153.26	10.5	81.15
662.176	77.33	47.71	49.13	66.38	28.74	24.84	119.23	71.21	86.62	71.81	32.72	36.59	155.97	7.87	82.06
662.504	77.32	50.18	51.17	67.24	30.93	26.88	119.07	72.09	87.69	71.99	33.89	37.95	153.69	10.61	81.87
662.832	75.8	49.36	49.94	65.94	28.7	26.22	117.89	71.13	85.89	72.46	32.92	36.39	154.61	9.66	82.29
663.16	76.51	47.82	50.34	66.03	29.26	25.35	118.61	71.08	86.43	70.95	31.7	36.64	155.26	8.8	81.9
663.488	75.18	47.61	49	65.52	28.9	25.5	115.96	70.73	85.36	70.49	32.09	36.31	152.92	8.18	80.28
663.816	77.1	49.33	50.93	66.74	29.46	26.7	120.13	71.34	86.39	71.76	33.17	37.47	155.04	9.27	82.07
664.144	77.49	48.17	50.64	66.29	30.07	25.26	119.46	71.63	87.55	72.51	32.64	37.47	157.14	8.61	81.56
664.472	77.16	48.57	50	66.9	29.79	26.08	117.89	72.54	85.86	71.77	33.4	36.7	154.77	9.68	80.79
664.799	78.25	49.87	50.46	67.73	30.58	26.11	119.5	72.92	87.62	71.8	34.23	38	155.18	10.05	81.82
665.127	74.31	48.01	48.31	65.01	28.49	24.89	114.48	69.22	83.85	69.46	31.53	35.29	149.03	8.26	78.98
665.455	77.35	49.12	50.77	67.27	29.6	25.49	118.66	70.95	86.1	71.41	32.02	36.58	154.05	8.66	81.1
665.782	76.56	48.26	49.24	67.56	27.98	24.9	117.05	70.02	85.25	69.38	31.36	34.87	153.83	8.59	79.87
666.11	76.06	49.07	48.59	66.01	27.64	23.51	115.41	68.27	83.45	69.17	30.88	35.91	151.46	7.38	79.1
666.437	75.78	47.82	48.55	66.51	27.85	23.86	116.13	69.44	84.15	70.15	31.57	35.38	152.84	7.85	78.28
666.765	76.75	49.15	49.52	66.75	29.67	25.69	115.62	69.44	84.45	69.76	32.19	36.49	151.65	9.21	79.46
667.092	76.37	49.32	51.09	67.48	30.01	26.46	115.86	69.82	84.86	70.95	33.02	37.37	151.23	10.2	78.64
667.42	75.93	50.12	52.26	67.86	30.61	27.33	116.29	70.22	84.96	71.32	33.15	38.22	150.46	10.85	80.69
667.747	76.94	49.39	49.8	66.86	28.15	25.05	115.92	71.27	84.96	70.2	31.76	35.51	151.44	8.43	79.51
668.074	77.44	50.5	50.64	67.6	29.91	26.24	115.03	69.88	85.14	70.41	33.62	36.92	150.55	9.91	79.1
668.401	76.27	47.99	49.66	66.07	28.05	24.15	113.01	69.45	83.29	69.59	30.84	35.32	147.82	7.81	76.8
668.729	77.37	49.42	50.22	68.06	29.49	25.98	113.99	70.05	84.53	70.75	31.95	36.35	148.19	8.77	78.07
669.056	77.53	49.38	50.76	67.23	28.23	25.54	115.78	69.54	84.85	71.33	32.12	36.7	149.6	8.94	79.1
669.383	78.68	50	50.93	68.16	28.95	26.34	115.25	70.73	85.21	70	32.16	37.25	150.68	7.84	78.72
669.71	78.69	50.88	51.54	68.81	29.36	25.75	116.85	71.44	85.74	72.2	33.73	37.41	152.49	8.29	80.46
670.037	78.64	50.69	50.91	69.09	28.87	24.8	117.48	71.49	86.4	70.44	31.56	36.87	154.81	7.16	80.22
670.364	78.56	51.15	51.86	70.06	29.92	26.32	118.64	70.9	87.02	71.74	32.94	37.07	154.64	8.32	80.61
670.691	78.04	50.04	51.09	67.79	28.07	25.66	117.24	70.09	83.54	70.25	32.31	35.68	152.19	7.89	77.94
671.017	78.09	50.8	51.71	68.7	29.14	26.36	116.26	70.44	84.12	71.14	32.68	36.32	152.72	9.03	78.54
671.344	78.88	50.16	51.79	67.91	29.33	25.97	117.13	71	84.59	70.32	32.34	36.56	153.37	8.2	79.92
671.671	76.79	49.95	49.95	66.63	28.67	24.77	115.42	68.67	83.28	69.09	31.68	35.94	148.73	8.1	78.37
671.998	78.7	50.64	52.38	68.85	29.69	26.31	117.83	71.5	85.05	71.24	32.87	36.87	153.74	8.15	80.58
672.324	79	49.89	52.03	68.76	29.57	24.45	117.94	70.68	85.35	71	32.06	35.78	154.4	7.31	79.16
672.651	79.59	50.77	52.37	70.27	29.31	25.39	118.85	70.45	84.43	71.01	32.7	36.97	154.6	8.33	80.96
672.977	77.99	51.06	52.19	69.45	29.03	24.89	119.99	70.63	85.54	71.5	32.31	36.83	155.87	8.03	80.08
673.304	78.59	50.79	52.03	69.57	30.32	26.05	117.35	70.8	84.15	69.47	32.61	36.38	151.52	8.78	79.07
673.63	79.13	52.24	52.06	70.29	29.2	25.89	119.69	71.57	85	71.85	31.78	36.9	155.53	8.4	81.14
673.956	77.12	50.44	50.46	68.67	29.8	25.04	115.51	68.9	84.22	69.38	31.63	36.98	149.88	9.31	78.12
674.283	78.8	51.09	51.85	70.29	29.05	26.13	117.29	70.36	85.74	70.83	31.98	37.33	152.92	9.19	78.5
674.609	78.45	51.17	52.65	69.43	28.9	25.82	116.32	70.3	85.1	70.17	32.16	37.78	152.32	9.77	77.89
674.935	77.98	51.19	52.54	68.73	29.75	25.89	115.34	69.42	82.89	69.74	32.47	37.42	149.06	9.63	77.36
675.261	80.26	51.83	52.1	70.7	30.26	26.15	119.45	72.07	85.23	71.44	32.69	36.25	153.91	9.65	79.83
675.588	76.75	50.5	51.63	68.57	28.94	26.17	115.33	68.91	83.54	69.75	32.24	36.03	148.84	9.03	77.46
675.914	76.63	49.47	50.07	68.02	26.61	24.56	113.93	68.28	82.51	68.42	30.7	35.16	149.89	8.25	77.22
676.24	80.09	50.6	52.39	68.8	28.8	25.26	117.88	69.53	85.01	70.46	32.03	36.49	151.55	8.64	78.72
676.566	77.97	50.47	51.34	69.2	28.86	24.81	115.96	69.12	84.02	69.74	31.62	35.66	150.56	9.06	78.71
676.892	80.07	52.09	52.47	70.54	28.94	25.55	118.43	70.03	85.83	71.6	33	36.61	154.95	9.01	79.35
677.217	79.52	52.6	53.52	70.96	31.09	27.08	116.82	70.83	85.19	70.64	33.34	37.68	151.25	10.87	79.02
677.543	75.95	50.38	50.43	67.49	27.43	24.22	112.28	67.52	81.56	67.54	30.73	35.33	146.37	8.73	75.96
677.869	78.02	50.3	51.59	68.8	28.42	25.12	114.37	70.47	83.75	69.47	31.61	35.64	149.33	8.61	77.69
678.195	78.01	51.3	52.72	68.8	29.42	27.1	112.42	70.27	82.89	69.24	32.01	36.23	146.51	10.67	76.37
678.52	76.79	49.96	50.35	68.07	28.51	25.22	113.62	69.69	83.28	68.2	31.2	35.51	146.78	8.78	75.4
678.846	76.44	50.36	50.65	68.76	28.89	25.36	111.96	68.75	83.98	68.28	31.7	35.45	146.15	9.26	74.91
679.172	76.7	49.95	51.15	67.36	27.63	24.56	108.86	68.35	80.52	67.04	31.08	35.42	141.18	9.06	74.32
679.497	75.54	49.11	49.43	66.72	27.7	24.24	106.44	67.21	80.44	66.37	30.17	34.58	138.29	8.51	71.91
679.823	76.92	50.02	51.3	68.57	27.92	24.29	109.29	69.65	82.11	67.12	30.68	35.21	142.04	8.53	74.45
680.148	76.75	50.03	51.16	68.55	27.7	24.68	110.39	70.09	82.73	68.98	30.93	35.54	143.01	8.32	74.28
680.473	80.46	52.75	52.91	70.34	30.09	26.31	113.61	71.99	85.62	71.27	32.84	37.65	148.64	9.02	77.27
680.799	81.91	53.27	54.12	72.13	29.56	26.08	117.96	72.57	87.4	71.8	32.96	37.94	154.11	8.71	79.59
681.124	82.06	54.45	54.81	72.52	29.84	26.36	117.94	72.31	87.51	72.57	33.41	37.45	155.07	9.66	81.48
681.449	83.22	53.89	55.05	71.75	30.46	25.92	117.49	72.21	85.48	71.57	33.76	38.06	153.02	10.26	80.35
681.774	81.41	52.88	54.04	72.65	30.42	26.32	117.37	70.44	86.24	71	32.25	37.9	153.76	10.19	79.61
682.1	81.92	51.96	54.29	72.4	29.23	24.27	121.23	71.38	86.85	71.5	32.33	36.22	157.93	8.41	81.6
682.425	82.17	54.47	54.7	72.32	30.07	27.13	119.24	72.17	86.74	72.55	33.63	38.27	155.73	11.22	81.28
682.75	81.88	53.07	55.38	71.82	29.81	25.88	118.94	70.87	84.65	70.26	32.3	36.03	154.74	9.74	79.84
683.075	83.44	54.63	55.84	74.02	31.24	26.58	121.82	73.01	86.62	73.11	33.45	39.18	160.2	11.12	83.05
683.4	82.17	54.17	54.68	71.73	30.27	25.93	118.47	70.66	85.87	70.69	33.55	36.66	154.58	10.49	81.69
683.724	80.63	54.2	53.69	71.42	29.93	25.53	118.91	70.13	85.92	70.56	32.98	37.3	153.54	10.72	80.72
684.049	81.89	53.69	53.95	72.92	29.89	25.97	119.56	70.53	85.99	71.11	33.52	37.09	156.31	10.8	82.07
684.374	81.72	52.9	54.91	72.75	29.42	25.16	119.92	70.38	85.24	70.52	32.63	37.58	156.45	9.95	80.55
684.699	79.99	52.37	53.65	72.32	29.02	25.59	117.71	69.56	85.43	69.73	31.93	37.21	153.34	10.51	80.56
685.023	81.25	53.54	53.87	72.67	30.27	24.5	119.12	70.41	85.67	71.58	32.63	37.15	155.47	9.88	81.27
685.348	80.95	53.16	53.44	72.05	29.85	25.95	118.07	70.91	85.99	69.91	32.41	37.48	154.45	11.48	80.43
685.673	81.15	54.65	54.68	72.95	30.16	26.62	118.83	71.5	85.27	71.18	32.83	37.29	156.38	11.04	82.06
685.997	80.24	52.88	53.08	71.95	29.93	26.03	116.83	68.22	83.11	69.93	32.26	36.87	153.92	11.61	79.86
686.322	81.8	53.42	53.7	71.42	29.98	25.42	118.11	69.57	84.55	70.72	32.91	37.38	154.91	11.66	81.54
686.646	81.92	54.14	54.94	71.42	30.26	26.13	119.36	69.27	85.11	70.15	33.27	37.48	154	11.87	81.62
686.97	82.69	54.07	54.19	73.6	29.26	25.42	118.53	70.53	84.74	70.17	32.89	36.71	155.3	10.82	81.61
687.295	84.18	55.54	54.82	74.15	31.28	26.7	120.29	71.02	87.24	71.78	33.25	37.83	156.94	13.01	83.22
687.619	80.5	53.51	53.29	71.25	29.12	24.6	117.64	68.1	82.67	68.18	31.35	36.55	152.61	11.67	80.33
687.943	83.15	53.61	54.01	72.31	29.6	25.18	118.44	70.98	85.26	70.91	33.24	38.11	155.25	12.15	81.44
688.267	81.78	53.65	54.11	72.04	30.22	25.45	117.49	69.69	83.91	69.76	32.58	38.03	153.96	13.06	81.27
688.592	82.35	54.05	54.83	73.32	29.77	24.99	120.38	70.8	84.81	71.64	31.75	36.91	157.41	11.45	82.71
688.916	83.5	54.53	55.54	74.33	29.06	24.03	120.48	70.82	85.37	71.49	33.01	38.1	157.37	11.7	82.46
689.24	82.52	54.59	54.76	73.72	30.95	25.92	118.97	70.72	85.61	70.84	33.35	37.44	155.89	13.11	82.28
689.564	79.7	52.96	54.15	71.76	29.92	24.88	116.37	69.12	82.76	69.43	31.85	36.11	152.11	12.38	80.62
689.888	82.24	54.31	55.34	74.22	31.29	26.44	119.21	71.39	86.49	72.11	34.11	38.48	155.65	13.98	83.09
690.212	81.11	53.06	53.9	72.16	28.45	26.08	114.58	68.54	83.69	69.5	33.56	37.13	150.64	13.7	80.78
690.535	84.47	53.06	55.69	74.94	30.05	26.43	119.86	71.93	86.64	71.49	33.73	37.06	155.89	14	82.49
690.859	82.81	53.47	53.88	72.4	30.37	25.37	117.72	70.94	85.24	70.44	32.44	36.83	154.73	13.01	81.9
691.183	81.76	54.77	55.34	73.21	31.5	26.83	118.8	72.04	86.04	71.28	34.02	38.17	152.84	14.42	82.41
691.507	81.79	53.99	56.26	73.37	31.67	25.99	117.92	71.4	85.69	71.22	33.62	37.79	154.32	14.8	82.05
691.83	83.74	53.64	56.03	72.45	29.94	26.34	118.82	71.33	85.89	71.63	33.13	37.36	155.79	14.28	83.18
692.154	80.82	52.84	54.12	71.12	29.67	26.22	115.27	68.61	83.07	69.71	33.32	36.47	149.72	15.71	80.01
692.477	82.61	53.8	56.45	72.89	30.74	26.92	116.08	69.83	84.26	70.6	34.7	39.03	151.56	15.31	83.47
692.801	81.97	53.71	55.06	72.93	30.69	25.54	120.38	71.88	85.39	71.59	33.03	37.27	154.31	13.81	82.39
693.124	83.53	55.16	55.7	75.22	30.41	25.23	119.71	71.66	86.45	70.73	33.76	37.67	157.82	14.51	84.36
693.448	84.31	55.67	55.53	74.61	29.66	25.25	118.86	72.1	85.96	71.74	32.6	38.13	157.9	14.15	82.85
693.771	82.67	53.6	54.47	73.11	29.61	25.96	116.58	70.11	84.96	70.51	33.31	36.75	154.63	14.85	82.89
694.094	81.05	53.54	54.26	72.14	29.74	26.17	115.97	70.58	84.24	70.28	32.16	36.32	151.3	15.29	81.83
694.417	84.89	54.59	55.38	74.74	30.24	24.98	121.71	73.23	88.67	74.36	33.45	38.13	160.62	16.31	85
694.741	79.41	52.1	52.94	69.26	28.92	24.17	113.04	67.95	82.01	67.67	30.89	34.51	148.83	14.38	80.6
695.064	81.38	52.28	54.49	72.56	28.77	24.98	116.19	70.18	82.97	69.84	32.51	35.21	151.82	14.16	81.11
695.387	82.1	53.35	54.12	72.11	29.01	24.81	115.74	70.19	85.1	70.31	31.51	36.87	152.19	16.28	82.89
695.71	78.6	50.71	52.96	69.83	29.14	24.7	110.69	67.39	82.03	67.16	31.02	35.39	146.83	16.31	78.72
696.033	79.52	53.48	53.97	71.59	28.98	24.35	112.51	69.01	82.15	69.06	32.04	35.89	147.86	15.89	79.79
696.356	80.49	52.64	53.43	71.61	28.94	25.44	113.01	68.82	83.77	69.33	31.98	37.35	146.71	14.99	79.83
696.679	80.68	50.84	53.81	71.25	29.17	24.23	112.42	68.47	82.22	68.23	31.55	34.71	147.29	15.76	79.85
697.001	77.18	51	51.74	69.17	29.24	25.35	107.98	67.11	80.88	67.48	31.42	35.57	141.36	16.96	78.09
697.324	76.8	51.02	52.06	69.01	28.47	25.44	104.61	66.1	78.93	66.79	31.08	35.61	138.77	16.52	76.28
697.647	73.59	48.72	48.85	65.94	26.67	22.86	101.75	63.61	76.05	63.12	30.36	33.51	132.06	15.92	72.38
697.97	75.44	48.5	49.5	65.97	26.77	23.41	100.76	65.23	76.87	64.46	30.08	33.03	131.8	15.98	72.21
698.292	76.17	49.42	50.45	67.54	27.25	23.78	101.81	66.94	78.34	65.43	30.46	35.24	131.61	15.94	73.12
698.615	82.08	53.53	54.08	72.6	29.79	25.74	108.44	70.33	82.27	69.09	33	36.66	140.9	17.43	77.34
698.937	83.54	54.55	55.83	73.23	29.64	25.83	111.51	71.94	84.98	69.74	32.7	36.84	145.67	17.4	79.31
699.26	86	57.01	57.21	75.41	32.13	27.66	116.26	73.32	87.69	74.02	35.12	38.26	150.29	18.95	82.51
699.582	85.43	57.32	57.94	75.1	31.33	26.89	116.44	72.76	88.41	73.07	34.88	38.79	153.14	18.51	83.04
699.905	87.35	57.78	58.92	76.05	31.71	27.8	119.89	72.99	89.04	74.13	33.97	39.09	157.05	18.92	86.02
700.227	85.88	56.1	57.2	74.66	30.06	26.5	119.69	73.46	88.6	72.18	32.68	38.07	155.45	18.42	84.59
700.549	87.61	59.09	59.39	77.18	32.58	28.66	121.69	73.78	90.3	75.14	34.93	38.9	158.44	19.9	87.26
700.871	87.35	57.14	58.96	76.83	33.47	27.84	121.96	72.99	88.97	73.74	34.54	39.66	158.65	19.85	85.82
701.194	86.48	57.32	58.25	76.27	31.75	26.92	121.2	72.69	90.59	73.2	34.26	39.14	158.81	18.63	85.64
701.516	81.45	53.56	54.74	72.99	29.35	25.51	115.83	70.39	85.29	70.08	33.07	36.36	151.86	18.27	82.36
701.838	86.03	57.38	57.33	74.43	31.75	27.23	118.58	71.99	87.97	73.23	35.32	38.37	155.18	20.46	85.44
702.16	85.29	54.88	57.01	75.23	30.45	26.04	118.25	71.76	87.22	71.19	33.17	37.25	157.84	19.12	85.33
702.482	82.87	55.75	57.57	74.89	32.33	26.81	117.63	72.03	86.61	71.63	33.56	38.12	153.5	21.21	83.74
702.804	83.13	55.39	55.76	74.59	30.26	25.72	116.95	70.73	86.37	70	34.1	37.21	154.64	20.2	84.67
703.126	82.18	54.14	55.45	73.37	29.15	24.79	115.4	68.7	84.94	71.15	31.95	36.59	152.08	18.03	84.25
703.447	82.67	55.28	56.66	73.73	31.22	26.84	118.2	72.47	87.13	70.85	33.94	37.86	153.93	21.27	85.68
703.769	81.95	54.52	55.72	74.15	29.55	24.52	116.44	71.31	84.48	70.61	32.42	35.84	155.06	18.81	82.94
704.091	82.26	54.67	56.12	73.38	31.36	26.38	115.3	70	85.46	69.78	34	38.45	150.58	20.46	84
704.413	83.65	57.29	57.33	74.22	31.3	26.33	119.5	70.54	88.01	72.72	33.59	37.79	155.97	20.41	85.8
704.734	80.57	53.09	52.37	70.74	29.83	26.17	110.8	68.61	82.23	66.59	30.94	35.37	148.36	19.78	80.92
705.056	81.15	54.03	54.01	71.71	30.14	25.97	114.12	70.94	82.61	69.95	33.04	36.42	149.62	20.46	82.14
705.377	84.7	54.62	55.84	74.19	30.92	26.55	116.03	70.18	84.88	71.62	33.45	38.75	149.68	22.04	83.2
705.699	84.14	55.71	54.03	74.29	28.5	24.44	117.59	69.57	84.44	69.97	31.67	37.12	153.29	19.94	82.62
706.02	84.58	56.13	58.05	75.16	32.67	27.36	117.07	72.54	85.68	71.36	35.61	39.85	154.39	22.7	85.05
706.341	80.8	53	54.43	71.96	29.76	24.95	113.55	68.91	83.11	69.75	33.1	37.5	149.11	21.58	82.34
706.663	80.16	53.94	54.89	72.04	29.84	25.03	112.73	69.7	83.8	70.69	32.7	37.3	148.61	21.62	81.25
706.984	82.54	52.58	55.21	73.69	29.48	24.07	114.31	70.42	84.33	69.35	32.51	36.08	150.81	20.55	82.6
707.305	80.91	54.03	55.01	72.5	31.55	25.81	111.13	69.36	84.63	68.69	33.85	37.84	145.77	22.04	82.94
707.626	80.99	53.57	54.82	71.31	28.77	25.55	112.91	69.23	83.13	69.09	33.24	36.44	146.55	20.48	80.8
707.948	83.3	54.62	54.87	73.68	29.49	24.21	116.43	71.6	85.55	69.92	32.4	37.12	155.21	20.31	84.35
708.269	83.42	54.57	55.12	73.74	29.47	25.85	118.1	70.27	83.35	70.91	31.87	36.34	151.47	20.82	83.83
708.59	81.08	53.82	54.72	71.92	29.04	25.75	113.8	68.67	82.66	69.38	33.48	36.6	148.27	21.36	82.34
708.911	79.63	54.53	54.34	71.84	29.96	25.55	111.65	66.91	82.65	67.15	32.99	36.51	146.55	21.19	82.13
709.231	82.45	52.64	55.23	73.23	29.48	26.59	114.93	68.87	83.55	70.01	33.49	36.81	150.71	22.39	82.57
709.552	82.45	53.2	54.11	74.9	29.99	24.97	114.76	69.94	82.85	68.53	31.72	36.07	150.32	21.39	83.33
709.873	85	55.96	57.44	75.55	29.56	25.51	119.01	70.03	86.33	71.12	33.49	37.69	155.46	21.66	85.32
710.194	80.65	52.98	54.75	71.78	28.74	25.88	112.39	67.31	81.25	67.64	31.56	36.44	148.86	20.9	80.46
710.515	83.75	54.55	54.21	72.33	29.19	26.09	113.9	68.2	83.08	68.54	32.56	36.64	149.07	21.39	83.57
710.835	83.7	54.64	54.7	73.77	29.08	25.36	116.5	69.44	83.44	69.93	32.95	37.22	152.92	21.38	83.98
711.156	85.01	56.05	56.34	74.04	29.6	26.5	116.96	69.82	85.38	70.07	33.69	37.91	152.88	22.61	85.66
711.476	82.88	54.62	55.33	74.67	28.56	24.95	117.11	70.27	83.78	69.73	33.27	36.46	153.36	22.39	84.25
711.797	81.76	54.84	55.92	73.73	29.31	24.29	115.54	69.75	83.46	68.32	31.92	36.15	152.03	22.23	84.75
712.117	84.82	54.4	56.97	74.88	30.18	26.48	116.94	68.95	85.42	71.8	32.31	37.93	152.21	23.08	85.59
712.438	85.72	55.61	57.45	75.56	29.93	25.32	118.89	71.16	86.32	70.95	34.21	37.68	155.44	22.98	86.73
712.758	83.31	55.4	56.52	74.2	30.26	24.94	115.34	70.1	83.51	70.43	33.15	38.64	151.24	23.68	84.39
713.078	81.54	54.17	56.32	74.12	30.92	25.6	114.47	69.77	83.78	69.09	33.86	37.77	149.05	23.98	82.66
713.399	82.33	53.45	54.79	71.32	29.08	25	111.76	69.01	83.12	67.6	33.13	36.57	147.29	21.87	82.19
713.719	83.14	53.88	55.8	71.31	30.11	26.5	112.81	69.82	82.59	69.08	32.24	36.52	147.2	22.79	81.76
714.039	82.99	55.27	54.44	72.65	30.4	24.94	113.39	68.86	83.71	70.95	33.19	36.11	148.12	22.56	84.28
714.359	82.47	54.15	53.28	70.93	30.42	25.81	108.68	69.56	81.36	68.28	33.52	36.73	142.57	23.84	79.45
714.679	79.89	52.93	53.05	70.64	28.21	24.23	109.86	68.44	83.1	68.11	31.66	35.23	144.29	22.48	80.76
714.999	80.37	53.43	53.61	71.09	28.06	24.52	110.12	69.24	82.88	68.5	33.36	36.12	145.55	22.11	81
715.319	80.63	52.4	53.81	73.28	29.67	25.07	109.03	68.56	80.73	67.35	31.61	35.65	141.85	22.65	79.44
715.639	84.74	56.03	55.14	73.84	30.44	26.52	114.25	71.55	84.05	71.23	34.57	37.96	148.26	22.96	84.41
715.959	82.99	54.85	56.62	74.3	28.98	24.91	113.57	72.04	84.13	70.01	32.56	34.8	149.52	20.94	82.55
716.279	84.23	53.8	55.23	73.89	28.52	25.38	113.89	71.34	85.51	70.2	32.88	35.14	148.25	22.37	81.54
716.598	83.59	55.95	57.44	74.09	30.34	27.08	111.79	70.99	83.13	70.34	34.1	38.13	146.89	23.54	83.47
716.918	82.23	53.96	56.64	73.24	30.41	27.49	113.13	69.83	85.48	69.91	32.68	37.9	147.25	24.05	82.92
717.238	85.38	55.38	57	74.18	31.14	26.08	115.74	73.03	85.51	71.43	34.37	38.18	148.67	25.12	83.51
717.557	84.63	56.25	56.42	74.59	31.14	26.19	113.92	70.08	84.7	70.73	33.27	36.56	147.26	24.89	83.61
717.877	82.78	55.43	55.94	73.57	30.71	26.06	115.22	70.85	85.24	72.05	33.68	37.86	148.62	25.35	82.88
718.196	83.15	54.02	54.9	73.57	30.2	25.49	113.84	70.53	84.52	68.83	34.44	38.08	147.02	23.33	85.15
718.516	85.72	55.8	57.76	76.92	31.28	25.29	117.19	73.22	86.53	71.79	33.79	39.05	153.15	25.24	84.81
718.835	83.7	54.87	55.82	75.02	28.34	25.81	115.83	69.9	85.5	69.32	32.98	35.14	152.79	23.08	84.71
719.154	81.77	52.84	54.51	73.34	27.62	22.25	115.83	69.71	84.09	68.96	31.15	34.46	150.1	22.53	84.48
719.474	84.8	56	56.18	76.89	29.58	26.34	118.38	71.52	86.25	72.05	33.33	36.97	154.21	24.8	84.89
719.793	83.96	57.83	57.58	76.29	30.1	27.07	115.95	72.43	85.42	72.46	34.34	36.92	154.71	24.64	83.96
720.112	80.59	55.15	54.95	72.92	30.09	26.12	111.75	69.63	81.94	70.19	33.44	35.38	144.9	23.44	80.06
720.431	83.45	55.66	56.39	73.87	29.03	26.75	115.69	69.59	85.61	69.98	33.58	36.16	149.19	25.27	82.51
720.75	83.82	55.42	56.57	74.54	29.85	25.43	115.96	71.22	84.88	70.97	34.43	37.11	152.1	24.97	83.5
721.069	81.02	53.34	52.74	72.53	28.09	23.89	109.53	67.13	82.42	66.5	30.56	35.01	146.31	24.3	80.23
721.388	81.15	51.77	53.3	72.17	25.98	23.08	116.01	68.71	83.32	70.05	31.68	34.37	150.15	21.02	82.85
721.707	81	53.31	55.58	71.78	28.06	24.99	113.21	69.9	82.79	67.73	33.05	36.34	148.36	23.21	82.86
722.026	81.24	53.98	54.05	72.56	29.37	25.51	111.93	68.02	82.27	69.58	33.73	34.88	148.36	23.73	82.1
722.345	84.63	54.07	54.24	74.96	27.66	25.64	117.69	71.37	87.05	70.34	31.33	34.82	152.96	23	82.91
722.664	82.69	56.38	57.09	74.94	31.51	26.49	113.97	71.44	85.19	70.04	35.4	37.04	148.73	25.92	84.17
722.982	81.37	52.42	55.05	71.14	28.4	24.55	109.8	70.24	82.88	68	31.83	35.91	144.48	24.09	79.79
723.301	84.27	55.19	55.84	74.8	28.66	25.48	115.66	69.91	85.28	71.04	34.37	38.24	152.57	25.51	84.87
723.62	81.19	53.35	53.37	69.49	27.48	24.85	110.57	67.97	81.58	67.07	31.96	34.24	146.4	23.91	80.45
723.938	82.65	52.59	55.16	72	29.81	26.91	113.61	67.74	84.8	69.55	35.02	36.4	147.27	23.98	82.08
724.257	83.42	54.59	55.02	75.04	29.02	24.89	114.43	69.08	85.03	71.38	33.67	36.65	151.95	24.58	84.67
724.575	81.19	52.27	53.88	68.99	28.22	25.71	112.06	68.16	82.99	68.04	32.08	35.57	147.92	24.13	80.35
724.894	78	52.07	53.12	70.38	28.33	24.43	107.89	67.53	80.73	67.96	31.88	35.99	141.83	25.91	80.03
725.212	77.27	52.02	53.91	69.99	27.86	23.44	110.41	66.63	81.68	66.7	30.57	33.86	144.62	22.87	78.67
725.53	79.52	50.97	53.24	68.88	27.37	23.12	108.35	66.38	80.96	64.99	31.11	33.23	144.85	21.86	80.47
725.849	78.85	51.13	52.74	68.85	27.86	23.69	108.5	64.16	80.41	66.35	31.76	35.08	141.04	21.99	79.98
726.167	81.81	51.35	53.66	72.88	28.76	23.93	110.99	68.49	82	67.64	32.3	36.66	147.24	23.77	82.44
726.485	81.05	54.01	52.8	70.86	29.29	25.53	113.32	66.97	82.4	68.48	31.7	35.54	144.53	24.3	83.24
726.803	81.57	54.64	54.66	73.81	29.51	25.52	112.18	68.74	83.89	69.56	33.81	37.42	149.25	25.11	81.37
727.121	79.61	53.61	53.06	70.34	27.9	25.29	109.26	67.25	80.42	67.5	30.55	34.83	144.61	23.31	80.13
727.439	79.32	50.74	51.73	71.2	27.27	24.66	108.29	66.97	79.36	65.59	32.24	34.22	143.56	23.56	78.76
727.757	83.2	55.56	54.69	74.3	29.96	25.73	113.18	67.76	83.61	68.59	32.38	37.06	148.03	25.83	82.46
728.075	81.19	54.42	53.92	71.08	30.91	25.8	112.07	69.71	82.83	69.57	33.56	37.21	147.71	24.61	84.06
728.393	80.07	53.57	52.85	72.21	29.52	26.31	107.36	67.71	81.17	66.09	32.94	36.08	141.77	24.55	81.25
728.711	81.66	55.05	56.07	71.5	29.87	27.02	110.22	70.33	84.03	69.78	33.1	37.55	145.42	26.14	83.39
729.028	82.8	53.92	55.57	72.92	29.13	25.11	114.22	68.79	82.94	70.56	32.02	36.1	148.4	24.09	81.88
729.346	80.54	53.79	54.44	72.61	29.73	25.39	109.53	69.77	82.13	67.34	31.01	36.38	143.54	24.57	81.7
729.664	80.78	53.75	55.14	73.67	29.44	25.65	110.46	69.47	82.86	69.72	34.03	38.02	144.51	25.19	82.07
729.981	82.87	55.98	56.84	73.86	28.85	23.61	114.46	69.94	84.55	70.72	32.26	36.28	149.06	23.05	82.28
730.299	82.5	54.09	56.1	73.24	30.53	26.4	111.48	69.54	82.79	69.65	32.55	36.45	147.21	25.15	82.72
730.616	83.37	53.82	55.81	74.87	29.16	24.08	114.36	69.66	84.19	69.09	33.06	35.51	151.19	22.98	82.74
730.934	79.55	51.49	52.6	72.29	27.54	22.26	110.64	68.47	80.44	66.85	29.91	33.4	144.99	23.15	80.19
731.251	82.28	53.85	54.65	73.16	27.43	22.76	110.37	68.22	82.69	68.29	31.88	35.35	147.59	24.05	83
731.568	80.15	53.41	53.31	71.65	29.42	24.2	107.18	67.2	79.76	65.99	32.34	37.11	142.4	25.73	80.6
731.886	82.3	53.99	53.47	70.31	27.72	23.68	110.98	69.14	83.13	68.86	31.49	35.58	145.74	23.43	80.48
732.203	80.81	53.69	54.56	71.62	31.01	26.93	111.48	67.45	82.81	68.37	34.73	35.96	143.44	25.31	80.06
732.52	83.24	55.49	55.6	73.57	31.28	26.78	110.73	69.64	84.34	69.25	34.54	38.38	148.39	27.07	81.57
732.837	80.04	53.61	53.67	71.75	28.48	24.5	109.01	68.53	81.4	67.14	30.98	35.65	140.95	24.02	78.27
733.154	80.3	53.11	53.57	72.32	27.23	24.37	107.83	67.74	81.59	66.03	31.65	34.43	140.66	24.74	79.43
733.471	83.03	54.71	56.08	74.13	29.72	26.58	111.02	68.42	83.7	70.01	32.47	35.85	147.39	25.23	82.57
733.788	79.79	52.32	54.52	71.72	28.21	25.97	106.96	67.33	80.23	68.51	32.27	36.59	140.72	25.88	80.01
734.105	84.13	55.13	56.41	75.22	28.95	26.65	113.49	70.59	85.49	72.61	33.49	36.74	148.73	26.72	83.48
734.422	79.9	52.41	54.78	72.82	28.63	24.71	112.61	69.47	82.68	68.7	33.06	35.61	146.25	24.49	83.28
734.739	81.44	54.62	55.08	75.24	29.6	25.91	111.48	70.44	82.2	70.17	33.32	35.51	145.03	25.43	82.13
735.056	80.22	53.97	52.32	70.98	28.31	23.81	111.68	68.14	81.61	69.65	32.18	35.17	144.32	25.28	80.31
735.372	83.33	55.67	55.39	73.36	30.18	24.76	111.73	69.92	84.62	68.23	32.45	37	147.17	25.63	82.16
735.689	82.3	54.69	53.64	72.48	28.57	21.44	111.99	69.59	84.26	69.14	31.85	35.33	149.33	22.7	82.29
736.006	79.65	50.03	51.61	69.02	24.7	21.3	108.64	64.08	79.62	64.15	30.1	32.69	141.55	21.8	75.9
736.322	84.26	56.08	55.55	74.08	30.66	26.65	112.37	70.7	84.13	72.43	35.06	38.82	149.38	26.89	83.03
736.639	81.55	53.45	55.52	73.57	30.16	28.23	110.98	70.81	83.38	70.56	34.38	37.31	148.56	26.13	82.17
736.955	77.69	50.71	50.88	70.44	26.86	24.43	107.93	65.9	78.22	64.13	30.17	34.88	141.06	24.34	78.78
737.272	78.17	51.31	52.07	70.66	27.23	20.88	106.81	68.29	79.8	66.22	31.56	33.46	143.96	23.79	81.38
737.588	82.59	52.85	53.26	73.47	28.78	25.16	110.9	69.65	82.79	67.49	33.07	36.03	147.64	24.57	82.96
737.904	83.52	54.04	54.97	74.31	29.99	27.09	116.25	70.21	84.46	72.34	32.73	36.52	150.41	26.62	83.53
738.221	80.96	53.26	55.56	72.86	30.97	28.21	109.07	65.96	81.22	69.15	33.6	37.27	138.79	27.24	80.77
738.537	83.23	52.77	55.06	71.49	27.97	25.18	111.49	67.89	80.94	69.23	30.66	35.78	147.47	25.53	82.82
738.853	82.62	54.47	56.05	75.2	30.5	27.46	114.25	70.37	83.96	70.31	34.2	36.87	146.9	26.63	85.27
739.169	82.98	55.02	58.9	76.25	30.95	26.21	115.84	69.8	84.29	70.02	33.9	36.69	152.94	26.76	85.3
739.485	81.61	54.91	54.68	70.84	28.15	26.17	111.53	68.8	82.22	69.76	32.37	35.78	146.95	25.34	82.07
739.801	80.95	50.89	53.55	70.4	27.46	23.22	109.26	67.5	79.46	67.39	32	33.95	145.81	23.14	80.27
740.117	86.01	55.32	56.42	76.21	30.14	26	118.36	72.39	89.83	72.31	34.12	37.21	155.01	25.33	85.04
740.433	85.27	57.35	56.41	75.43	32.71	28.38	116.27	70.59	86.9	71.95	34.41	37.6	151.66	29.42	86.48
740.749	82.42	55.85	55.24	73.78	28.19	27.72	110.79	68.31	83.99	69.75	33.67	36.55	147.43	27.42	83.43
741.064	87.5	57.92	58.11	77.61	31.35	27	116.72	71.8	86.96	71.91	36.51	37.62	155.53	28.38	87.7
741.38	81.33	55.15	55.43	71.94	32.03	27.5	109.38	68.99	81.3	67.53	33.9	37.46	143.73	27.75	82.8
741.696	85.97	54.44	56.31	76.46	29.66	25.43	114.7	69.67	86.17	71.84	34.51	35.14	154.03	26.77	84.16
742.012	83.68	55.25	58.47	76.26	30.29	27.12	114.11	71.91	86.65	71.95	35.25	39.86	149.5	28.73	83.95
742.327	83.81	56.52	54.47	74.63	30.43	28.88	113.37	68.65	84.97	70.45	35.89	36.71	146.74	25.97	81.48
742.643	85.06	54.07	55.55	75	29.43	25.95	114.88	70.94	86.95	71.32	35.63	37.54	151.96	26.77	82.52
742.958	81.4	53.07	55.06	73.07	28.67	24.62	113.86	69.45	83.42	68.4	31.42	36.06	148.15	25.91	83.49
743.274	82.92	52.03	55.82	75.27	29.74	25.23	114.66	74	86.94	70.24	29.92	34.94	152.64	25.85	80.36
743.589	80.03	53.61	54.55	72.3	31.22	24.4	109.78	67.36	82.76	71.32	33.92	36.29	144.66	26.63	81.38
743.904	80.47	52.18	52.57	70.94	28.36	22.29	108.87	68.04	81.12	68.37	31.95	33.46	146.29	23.13	83.11
744.219	77.95	51.63	51.61	69.35	28.66	26.09	104.95	65.41	79.29	65.49	31.96	33.2	141.14	24.13	78.08
744.535	74.72	50.79	52.32	68.04	26.51	25.4	103.1	67.17	77.7	66.65	31.44	34.37	137.95	24.85	78.37
744.85	82.3	54.26	55.72	73.79	31.47	28.59	109.1	69.12	82.66	68.42	35.22	35.9	141.47	27.73	79.97
745.165	83.47	55.27	54.57	73.64	31.61	25.99	111.39	70.65	83.41	71.76	33.66	38.76	145.5	27.55	82.55
745.48	75.8	50.25	49.12	69.43	27.43	22.26	105.42	63.68	77.95	64.77	29.79	34.36	137.81	23.16	76.09
745.795	81.77	54.85	55.54	72.13	27.46	29.38	113.8	68.52	82.32	69.17	32.48	36.76	147.02	26.56	83.19
746.11	80.89	53.46	56.18	72.62	30.88	24.79	109.1	68.82	83.09	68.46	33.07	35.93	148.9	25.01	83.15
746.425	81.61	50.59	52.81	69.06	25.67	21.91	110.94	68.54	79.56	68.07	30.76	32.4	148.3	22.47	79.26
746.74	81.74	53.31	54.95	72.17	27.8	23.43	111.42	68.55	82.7	70.88	31.03	36.29	151.13	24.51	84.07
747.055	75.48	48.4	51.06	67.64	25.78	22.22	104.34	65.7	75.26	62.62	27.32	32.32	137.71	23.8	76.03
747.369	77.56	51.18	53.35	69.18	29.26	24.12	106.69	67.07	82.07	64.9	32.55	31.33	141.09	24.85	78.99
747.684	77.69	53.22	52.11	69.29	27.5	25.59	106.41	65.94	80.01	67.79	30.29	36.18	136.21	25.66	77.9
747.999	77.74	49.87	50.7	69.18	25.81	22.94	106.85	67.52	77.73	64.29	29.17	32.51	141.66	22.72	76.71
748.313	82.94	54.25	54.38	76.48	31.23	26.76	108.66	69.22	85.26	69.49	35.3	36.65	145.87	26.3	83.28
748.628	81.53	56.1	56.88	74.13	29.6	25.63	111.28	68.53	82.64	67.54	33.49	37.04	146.05	23.87	82.88
748.942	77.39	51.13	51.53	68.37	28.13	24.93	105.51	66	80.71	67.26	30.71	36.32	137.9	22.71	75.04
749.257	80.75	48.8	51.7	69.6	28.48	20.78	109.59	69.03	80.54	66.8	30.06	31.43	142.53	21.59	78.26
749.571	84.22	54.19	54.53	74.97	28.93	23.83	113.63	68.99	82.33	70.12	32.73	33.63	148.03	25.84	84.33
749.885	80.73	51.26	51.49	71.93	26.97	22.21	106.6	66.06	83.26	67.64	31.19	33.89	143.91	23.57	81.01
750.2	81.23	51.44	51.23	71.19	26.15	23.37	108.9	68.07	80.04	67.4	29.6	34.07	140.37	24.06	80.52
750.514	83.95	54.3	56.72	74.86	25.9	23.85	114.09	70.93	84.86	70.37	31.87	35.35	150.57	23.3	83.95
750.828	80	51.11	52.72	70.87	29.55	24.73	105.73	67.82	79.84	66.35	32	33.69	141.98	24.17	75.76
751.142	84.35	53.59	54.1	75.95	28.58	23.98	118.5	68.6	85.35	69.29	33.51	33.78	148.92	23.28	82.67
751.456	84.24	54.43	55.94	75.84	29.99	25.21	113.86	69.5	84.72	70.18	35.62	36.79	150.1	26.08	82.38
751.77	82.3	55.54	54.69	71.94	30.28	25.11	108.59	67.74	83.33	68.18	33.56	37.62	140.39	25.23	80.4
752.084	83.08	56.93	54.52	74.37	28.7	26.41	114.71	69.19	85.07	71.8	34.22	34.17	147.96	26.74	85.39
752.398	84.15	53.14	56.54	75.62	26.37	25.14	113.51	69.12	86.13	70	30.94	33.32	149.26	23.54	82.58
752.712	79.9	53.11	55.83	75.86	28.77	24.51	109.8	69.87	82.24	67.22	33.55	34.86	143.87	23.58	80.84
753.026	75.94	47.23	49.66	70.2	25	24.35	103.84	64.31	80.51	64.19	30.75	31.93	138.06	21.88	76.99
753.34	81.98	52.49	53.05	71.69	26.76	26.37	106.04	67.22	83.08	67.84	31.42	34.09	141.99	24.88	81.77
753.653	81.42	54.27	52.58	72.54	28.32	25.31	105.02	70.05	83.28	69.4	31.61	36.19	141.75	26.48	79.96
753.967	78.81	52.2	52.32	67.69	25.8	23.84	103.12	65.35	80.95	62.6	29.82	32.82	140.7	24.43	77.4
754.281	81.6	53.01	53.43	71.88	27.63	26.3	107.08	67.1	80.61	65.59	31.93	33.9	141.19	24.59	80.91
754.594	82.69	51.6	56.87	73.38	31.39	27.71	109.95	67.65	80.04	66.67	36.19	35.26	142.71	24.82	82.63
754.908	83.98	51.08	53.65	71.98	27.75	22.63	112.35	68.51	83.38	66.53	29.23	33.45	147.45	23.91	81.69
755.221	81.64	54.23	52.8	74.26	28.38	22.74	109.97	68.35	83.01	70.88	31.2	34.3	145.06	24.37	78.72
755.535	87.7	56.93	56.17	75.52	30.92	25.74	115.9	68.17	87.15	70.17	33.04	34.71	149.15	23.59	84.34
755.848	81.75	55.42	52.87	73.45	27.3	26.23	110.9	68.05	84.31	68.75	30.65	32.5	147.09	23.95	81.61
756.161	79.48	53.93	54.12	71.15	29.63	24.94	107.09	69.77	80.33	66.83	32.47	36.51	142.4	26.79	79.99
756.474	86	58	58.06	76.86	31	27.15	114.22	74.92	87.46	72.15	33.25	38.14	149.06	26.61	84.53
756.788	81.66	53.5	54.93	75.03	28.12	27.78	111.44	69.05	83.54	69.09	34.72	37.77	145.3	27.31	82.58
757.101	79.87	50.43	49.94	69.58	25.58	21.13	105.73	64.02	77.91	67.93	29.2	34.78	137.1	21.93	76.75
757.414	78.56	50.63	50.22	68.11	26.55	25.25	104.35	63.57	77.43	64.98	28.94	32.38	139.45	21.93	76.66
757.727	79.63	49.71	52	70.2	24.22	24.77	106.44	66.04	77.86	65.95	30.19	31.96	141.37	23.29	77.7
758.04	88.07	56.79	60.16	77.7	32.38	29.13	116.22	70.98	90.29	75.88	33.99	38.37	152.78	26.97	86
758.353	82.99	55.67	54.38	74.63	27.21	24.42	114.61	68.5	84.04	70.53	31.59	34.65	151.67	23.68	80.2
758.666	83.76	53.59	56.1	77.78	28.58	24.1	113.64	72.33	84.76	68.61	32.15	37.8	151.21	24.52	84.1
758.978	83.66	52.72	53.16	75.31	26.88	22.1	114.49	67.98	83.47	68.15	29.48	34.84	150.77	22.74	81.27
759.291	78.72	52.56	52.47	70.86	27.21	26.08	107.22	68.48	81.23	66.99	31.82	34.84	141.25	23.69	79.23
759.604	79.6	51.81	52.13	72.65	26.89	22.29	108.31	64.53	80.49	64.19	29.61	33.14	143.38	22.12	79.14
759.917	80.83	51.69	51.77	73.23	25.45	22.84	109.71	64.86	78.09	65.51	30.78	33.06	145.94	23.23	77.97
760.229	89.55	56.19	57.74	78.63	28.6	26.36	116.94	73.1	88.24	72.9	34.16	34.98	150.02	26.58	86.21
760.542	79.29	51.23	52.81	71.25	28.36	21.64	112.44	65.91	82.64	69.8	33.04	33.76	145.53	23.93	83.19
760.854	82.95	55.02	54.42	73.56	28.09	23.48	110.19	67.61	81.75	70.07	32.57	34.72	145.63	26.6	81.66
761.167	81.68	50.76	55.21	70.91	28.97	22.97	110.27	68.74	79.95	66.24	30.86	35.07	143.15	24.72	78.71
761.479	79.65	51.44	55.02	71.21	28.18	22.31	106.27	67.89	79.51	65.6	31.57	36.04	138.5	26.63	79.62
761.791	82.82	51.91	52.66	74.29	26.32	22.76	111.79	69.28	79.8	67.34	30.4	33.83	146.11	23.87	82.86
762.104	78.89	51.39	53.53	71.54	26.41	22.71	106.76	65.36	78.65	66.62	30.46	33.81	140.53	21.02	77.67
762.416	78.35	48.55	49.99	69.12	27.09	24.56	100.44	64.42	76.59	65.02	32.01	35.49	133.88	24.79	74.09
762.728	80.02	51.94	52.34	69.97	27.7	23.14	105.13	66.37	78.01	65.61	33.04	35.91	137.05	24.72	76.29
763.04	78.57	51.37	52.58	70.47	29.51	24.79	103.78	65.1	77.3	64.74	33.06	34.81	133.32	26.35	77.15
763.352	81.35	52.99	52.2	73.25	28	23.15	105.69	65.99	78.94	64.73	31.68	33.99	140.08	24.82	79.51
763.664	86.37	54.48	55.83	76.04	29.93	25.67	112.51	68.44	82.08	69.06	34.05	37.16	148.1	27.62	85.26
763.976	88.68	56.8	58.87	80.17	30.55	26.81	118.15	71.82	86.25	72.37	36.13	39.4	153.73	28.28	88.35
764.288	89.35	58.68	58.35	81.19	29.6	27.64	122.2	73.52	89.16	74.19	35.84	38.88	158.78	27.47	90.31
764.6	88.67	57.25	60.19	80.82	29.64	24.69	122.33	73.07	89.03	72.84	35.47	39.7	158.24	25.86	88.59
764.912	84.69	56.28	56.31	76.34	28.97	24.6	112.84	69.18	83.1	69.19	34.61	36.22	148.11	26.34	85.32
765.224	88.19	56.51	57.9	77.43	30.29	25.21	118	72.67	86.87	74.12	33.87	35.22	155.97	25.37	85.43
765.536	84.83	56.77	56.05	75.84	29.76	27.31	115.53	71.46	86.19	70.94	34.12	37.94	149.11	26.73	86.03
765.847	86.35	56.86	56.09	76.58	32.8	26.78	114.38	71.98	85.07	72.82	35.72	39.8	151.09	24.97	86.13
766.159	90.41	59.08	59.95	81.77	29.4	25.72	121.12	75.57	90.16	74.27	32.96	37.21	157.7	23.14	88.02
766.47	82.34	50.9	51.94	72.64	26.39	21.66	110.46	64.68	80.71	65.55	27.25	30.98	144.21	19.21	79.16
766.782	86.08	57.43	58.44	77	31.23	26.24	114.35	71.3	85.69	71.49	36.34	40.07	152.55	26.29	86.65
767.093	85.91	54.18	54.19	73.84	27.43	23.84	110.79	70.31	81.59	66.25	32.71	36.8	144.11	25.52	80.33
767.405	84.28	56.97	55.89	78.61	32.35	27.88	112.09	71.96	85.17	71.65	37.45	42.63	147.11	28.03	86.2
767.716	82.26	55.18	54.55	73.6	27.3	24.61	107.53	69.96	83.11	69.75	34.18	37.88	140.15	26.84	79.44
768.027	77.88	52.59	50.76	68.62	27.96	25.03	103.07	65.42	79.62	64.98	30.26	34.74	135.07	24.57	78.31
768.339	82.11	57.33	55.9	73.17	31.12	29	107.29	69.29	84.15	67.69	37.24	39.17	140.59	28.13	79.77
768.65	80.03	52.91	52.01	69.95	28.03	25.73	105.06	66.48	79.67	67.38	33.79	36.9	137.12	27.62	77.65
768.961	82.03	55.32	54.9	70.13	29.17	25.12	109.11	71.41	80.41	67.11	32.11	37.61	140.18	25.53	78.08
769.272	78.97	50.99	54.03	69.86	30.84	24.52	104.96	68.9	81.76	66.84	32.67	33.71	136.11	24.56	77.5
769.583	83.93	55.62	53.32	74.46	30.38	25.67	111.48	70.52	83.58	69.44	34.92	38.82	145.18	25.27	79.44
769.894	82.59	55.27	53.68	73.86	29.27	28.7	107.5	69.42	86.21	67.68	33.81	38.32	144.57	26.42	80.04
770.205	84.46	52.38	54.47	76.61	27.22	24.22	110.56	70.07	86.45	70.17	30.35	35	144.18	20.34	80.75
770.516	80.92	50.55	50	73.54	26.28	24.39	108.59	68.49	83.22	67.27	31.47	34.64	143.42	22.48	79.03
770.827	77.59	51.28	51.38	68.98	27.84	25.7	101.7	64.79	76.28	63.51	31.78	34.98	132.98	21.51	75.06
771.137	79.03	55.17	56.9	72.84	28.34	27.4	106.63	67.74	79.21	68.02	33.58	39.39	137.79	27.98	76.78
771.448	76.7	50.38	49.98	69.02	26.53	25.05	101.29	64.61	78.3	63	31.58	30.58	134.73	21.14	75.52
771.759	73.66	50.38	52.17	67.06	26.04	17.49	99.24	62.23	76.15	63.44	27.19	33.57	134.6	19.9	74.27
772.069	71.08	48.14	46.38	66.12	23.24	18.48	98.86	65.6	75.4	61.22	25.86	27.97	134.91	17.57	73.29
772.38	74.59	49.08	49.09	69.07	23.62	18.22	103.69	62.4	77.77	63.84	24.49	27.86	143.78	18.45	76.07
772.691	75.41	49.93	52.21	66.89	29.98	27.88	97.9	64.73	78.55	64.22	32.59	36.85	126.82	25.36	74.2
773.001	82.22	53.99	54.36	71.21	28.91	25.29	107.03	69.43	80.91	64.58	33.44	36.46	137.2	22.42	80.22
773.311	79.83	49.67	45.5	67.7	19.18	17.92	106.73	65.47	80.14	64.96	24.37	31.23	148.4	11.92	78.41
773.622	84.66	55.04	55.39	77.51	29.61	25.73	114.84	74.13	80.23	71.45	32.99	38.67	148.61	23.82	83.33
773.932	86.12	54.27	57.4	75.47	30.57	24.88	114.71	68.91	84.8	72.56	35.59	37.98	147.55	24.04	80.46
774.242	80.01	54.67	54.34	71.49	28.61	25.55	106.26	68.46	80.62	67.45	31.15	36.05	140.86	21.05	79.95
774.552	76.98	45.22	50.53	67.69	20.37	21.36	103.49	65.79	79.59	62.78	29.77	29.93	138.32	22.31	73.82
774.863	80.95	47.56	52.09	68.31	25.39	23.72	111.27	70.88	82.64	65.42	30.01	31.99	150.65	23.95	81.07
775.173	79.39	51.99	51.86	70.11	28.77	23.45	105.68	64.33	78.81	65.18	30.34	30.53	137.8	19.98	76.82
775.483	73.48	49.74	48.85	68.46	23.37	20.46	102.23	61.3	76.81	62.58	30.09	33.79	128.35	22.41	73.79
775.793	76.95	51.92	50.26	71.03	23.68	22.93	106.49	73.25	78.57	63.85	29.51	32.25	142.4	21.34	81.32
776.103	82.83	60.74	54.74	72.13	25.04	29.93	111.47	73.85	85.69	70.62	32.79	36.07	148.55	24.46	81.41
776.412	79.99	49.13	54.75	70.8	26.44	21.24	110.22	70.15	82.73	68.7	30.07	35.25	145.81	22.47	78.25
776.722	78.69	54.81	53.31	73.08	23.58	20.29	111.39	68.65	86.48	66.25	29.23	35.5	142.52	23	76.37
777.032	72.18	48.27	46.85	64.13	21.82	20.04	100.02	62.37	74.89	65.13	27.36	28.27	132.73	18.28	72.31
777.342	75.32	49.84	49.63	65.64	25.02	23.88	99.76	67.02	75.73	65.73	29.98	34.22	131.18	21.67	73.91
777.651	75.42	47.02	47.81	69.35	22.52	23.04	100.06	67.19	75.48	59.6	29.14	31.26	130.68	19.02	72.04
777.961	78.06	52.61	52.77	71.42	29.61	25.52	99.39	68.43	80.47	68.33	33.72	36.51	136.08	27.79	77.54
778.271	76.44	49.09	52.39	67.88	28.19	24.38	101.22	64.55	77.16	62.65	32.07	37.18	134.49	22.99	74.79
778.58	81.61	57.09	55.53	73.05	31.43	28.81	102.68	71.18	84.66	69.26	33.54	36.41	134.36	24.93	78.94
778.89	79.22	51.39	52.08	72.18	29.45	28.18	102.51	63.85	81.42	66.67	35.59	39.4	138.33	25.88	76.92
779.199	80.51	57.79	57.08	75.45	30.46	27.44	110.22	75.55	87.48	73.1	38.3	41.04	142.62	28.72	82.34
779.508	78.27	49.77	49.62	73.29	22.3	21.23	107.09	62.97	81.89	65.29	30.98	28.2	139.98	19.18	79.3
779.818	76.75	48.64	49.69	68.7	26.19	24.9	100.32	63.84	77.78	63.27	31.18	35.06	129.99	25.3	73.71
780.127	73.2	49.89	48.06	65.87	29.59	24.9	100.28	63.33	80.83	63.42	35.47	33.91	127.67	20.26	75.85
780.436	79.87	55.24	53.14	71.96	30.07	25.56	104.28	68.9	83.57	71.64	32.89	33.52	136.36	23.26	79.73
780.745	76.46	52.97	49.81	68.39	28.78	24.9	101.05	66.52	80.86	66.78	34.5	36.91	132.31	25.41	70.96
781.054	74.99	45.1	48.22	66.3	27.85	24.99	96.12	62.89	77.22	62.45	30.58	31.18	129.96	22.47	69.21
781.363	77.17	53.65	50.27	71.26	32.64	27.15	103.38	68.94	81.29	66.53	34.97	36.58	136.49	26.95	79.48
781.672	76.76	50.27	50.42	72.1	32.2	26.85	97.36	64.9	77.1	65.21	35.07	36.89	129.88	25.7	74.44
781.981	74.2	47.53	51.97	72.69	22.79	19.86	106.28	65.84	77.43	66.12	31.09	32.36	141.44	19.9	75.46
782.29	79.99	44.7	51.04	66.85	25.51	19.91	99.21	63.44	75.4	62.26	30.18	34.53	135.53	23.9	70.14
782.599	79.98	55.97	57.26	72.42	31.67	29.65	106.09	70.26	80.91	66.63	34.56	33.54	142.61	25.3	82.43
782.908	86.74	58.65	59.97	81.62	37.13	31.89	112.99	73.17	85.56	75.47	38.83	43.82	143.11	29.99	86.67
783.216	83.14	55.8	52.98	74.01	31.32	29.34	109.27	72.53	80.8	69.55	35.94	36.51	137.32	27.33	81.5
783.525	75.29	46.53	51.61	69.96	26.18	27.01	99.14	67.09	75.51	64.69	33.39	35.89	130.55	23.71	72.31
783.833	71.72	47.91	45.03	62.95	19.17	22.86	92.95	61.57	70.78	60.72	25.37	25.48	124.69	18.19	70.03
784.142	82.29	46.9	50.81	72.12	25.14	17.92	101.36	65.83	78.94	67.08	29.13	33.59	132.64	20.9	77.71
784.451	80.49	49.01	49.97	69.07	22.48	21.09	102.08	63.33	76.34	66.56	33.1	31.68	140.82	18.08	71.38
784.759	82.76	55.04	52.35	75.9	29.18	26.62	110.26	73.16	84.67	70.33	36.14	38.64	145.34	23.19	81.66
785.067	77.18	47.2	45.89	68.32	23.46	18.52	101.59	65.81	79.59	61.41	27.72	34.75	138.22	16.76	75.54
785.376	78.34	50.69	50.31	69.25	26.31	23.12	104.51	65.68	80.17	68.17	32.44	31.21	144.75	20.51	75.5
785.684	80.25	52.23	56.46	77.34	29.64	23.45	113.57	74.02	84.55	71.06	34.05	38.79	146.68	23.27	77.93
785.992	83.12	53.18	55.66	72.54	22.4	22.3	111	73.7	86.34	70.27	31.77	35.27	147.16	22.38	84.88
786.3	84.52	53.79	53.68	74.91	27.3	27.12	109.46	77.04	83.34	71.04	33.81	39.57	144.85	25.12	80.13
786.608	81.16	51.47	49.49	70.55	23.5	22.81	107.66	68.8	80.05	66.29	32.49	35.71	140.16	23.98	72.68
786.917	82.71	48.33	54.01	68.17	24.81	23.1	104.36	70.54	84.35	67.18	28.95	33.8	141	23.29	76.32
787.225	74.09	48.99	48.68	70.4	24.84	20.69	106.42	67.79	81.23	63.79	29.33	30.56	146.34	19.5	74.62
787.532	71.3	47.64	47.16	66.88	20.01	18.38	100.75	57.47	68.97	57.85	25.45	32.12	124.61	19.24	63.97
787.84	78.54	51.64	52.15	68.9	24.15	21.02	105.64	60.99	72.64	59.94	25.5	29.15	133.16	16.09	75.77
788.148	79.91	44.86	46.64	70.61	24.36	21.79	98.51	62.09	75.44	61.6	27.55	31.58	133.51	19.6	72.71
788.456	83.46	54.52	57.61	69.04	29.8	29.87	105.32	70.53	85.58	70.73	38.35	36.13	141.83	26.17	80.67
788.764	85.45	58.05	62.45	77.9	33.89	29.7	111.79	80.17	91.06	76.03	41	44.23	148.34	32.13	85.81
789.071	83.22	57.94	52.56	75.62	29.87	27.61	109.13	70.5	83.74	70.55	38.67	36.03	149.79	25.21	80.51
789.379	80.74	54.69	49.51	71.8	23.6	18.2	106.4	71.28	77.61	64.32	29.33	36.72	144.97	21.77	74.46
789.687	85.6	54.04	56.8	76.48	32.5	26.69	110.74	71.57	84.65	70.12	33.28	32.7	147.84	28.34	80.57
789.994	83.45	52.81	52.58	70.67	26.57	20.91	107.23	71.03	83.38	68.52	31.91	34.25	139.32	22.28	77.59
790.302	86.62	55.17	55.68	77.23	28.1	25.08	115.11	65.59	85.03	75.49	31.89	34.29	152.15	21.8	80.37
790.609	77.59	52.33	50.4	73.08	31.72	21.48	101.02	65.25	82.33	65.76	30.94	35.11	139.6	24.86	74.46
790.917	77.99	45.12	48.03	67.75	22.02	22.1	104.3	64.75	77.34	65.08	27.97	31.92	129.07	23.03	77.53
791.224	71.63	50.71	47.15	64.07	28.17	26	94.11	62.68	75.23	65.91	31.46	32.27	122.84	24.27	70.64
791.531	76.12	49.54	46.89	69.1	21.79	19.31	100.37	64.34	76.86	62.7	28.48	28.33	141.01	17.25	71.87
791.838	77.05	55.67	53.54	67.31	26.6	25.2	105.83	71.07	80.36	67.79	34.11	38.07	141.17	27.33	81.75
792.145	76.64	53.18	45.74	70.18	27.64	27.31	103.75	64.04	74.33	67.8	32.78	40.22	138.93	22.71	71.77
792.453	89.5	57.51	60.39	74.48	33.85	38.92	111.24	74.85	86.75	76.5	40.03	41.17	144.32	32.16	83.74
792.76	80.09	52.9	53.49	71.88	23.78	23.75	107.71	62.82	78.56	64.6	28.49	32.58	135.55	17.72	74.84
793.067	82.6	49.8	51.72	69.53	27.1	25.72	102.95	68.77	75.15	68.79	33.46	35.16	127.97	22.74	73.51
793.374	78.26	45.85	51.68	68.33	19.61	21.75	103.16	68.46	80.49	63.24	29.95	27.97	137.99	15.52	74.78
793.68	69.75	49.65	49.25	67.66	24.38	23.29	96.98	64.2	75.76	60.35	32.42	33.82	125.32	23.07	70.68
793.987	77.68	53.38	51.94	71.2	29.44	26.13	103.89	68.82	79.02	66.44	35.16	37.85	133.02	27.41	76.12
794.294	68.54	42.77	44.58	58.66	20.05	21.66	91.66	55.78	67.77	56.8	22.7	28.51	118.21	16.34	62.38
794.601	70.37	51.14	42.02	63.47	21.06	23.75	91.41	62.34	69.14	55.87	23.38	29.31	122.61	21.5	66.94
794.907	75.33	47.3	54.63	68.34	21.28	22.55	108.61	64.84	78.13	67.17	28.85	32.04	139.57	20.12	77.62
795.214	78.86	46.23	56.72	69.36	37.16	27.22	104.7	65.52	79.59	65.67	32.5	34.91	138.52	24.32	74.23
795.521	75.48	50.07	50.97	67.2	22.74	21.66	97.69	60.94	68.86	64.63	27.53	29.9	129.37	18.71	68.97
795.827	83.95	54.83	53.14	70.37	30.28	28	102.97	67.92	79.53	70.86	35.78	38.92	131.54	26.73	77.02
796.134	79.34	55.23	58.15	72.64	29.1	27.44	111.58	73.52	83.13	72.49	33.75	38.8	145.45	21.95	80.62
796.44	79.14	50.68	49.3	71.46	27.05	26.04	105.62	69.77	80.35	64.63	32.9	36.12	138.42	25.64	75.99
796.746	78.3	51.35	46.48	68.77	23.93	22.26	105	61.55	79.78	64.76	32.29	37.21	138.44	20.9	74.85
797.053	82.49	57.57	53.24	71.58	26.46	27.63	104.49	67.11	82.99	72.33	36.22	35.68	143.5	24.76	76.24
797.359	91.16	58.16	59.65	77.07	30.1	30.5	115.5	72.26	86.37	75.66	37.53	41.11	154.42	28.14	86.2
797.665	88.38	54.08	52.83	75.93	27.03	22.26	116.46	71.38	87.68	72.61	30.32	35.57	157.91	21.13	81.01
797.971	80.96	50.77	50.65	73.58	30.42	28.38	102.06	68.47	82.25	66.88	32.92	39.2	133.98	25.31	77.61
798.277	72.97	45.91	48.63	65.22	21.84	23.06	91.75	59.28	70.83	60.72	31.31	33.05	128.28	20.02	68.69
798.583	79.83	52.91	50.61	70.13	27.33	23.57	106.46	68.62	77.66	64.55	27.56	34.74	140.27	21.52	75.44
798.889	85.43	53.34	60.3	80.01	28.97	26.5	110.81	70.91	84.31	70.77	31.8	35.47	150.45	21.08	84.59
799.195	71.54	43.11	42.4	64.62	23.89	19.53	97.18	58.98	72.38	60.32	28.14	30.46	129.62	20.33	65.91
799.501	83.77	51.26	57.94	72.02	33.77	32.58	100.2	72.71	84.35	66.78	38.98	38.48	130.1	25.03	77.98
799.807	83.01	55.06	53.58	72.95	26.59	29.18	98.43	67.71	79.45	67.23	34.43	35.81	138.95	25.89	79.96
800.113	66.58	38.77	42.34	62.03	18.12	13.85	90.74	57.76	71.78	57.43	25.65	21.45	125.27	16.04	62.72
800.418	80.4	49.13	50.3	66.25	24.38	21.96	101.69	69.01	84.27	71.01	31.98	33.89	137.61	27.96	75.07
800.724	65.58	44.72	46.21	56.63	16.68	17.81	86.95	57.25	70.85	56.82	27.05	26.59	119.73	19.68	59.15
801.03	68.38	46.75	42.94	58.36	18.96	16.09	93.25	59.36	71.36	60.87	25.55	32.61	122.34	18.93	64.23
801.335	75.03	53.04	50.74	73.39	22.4	22.67	114.02	74.1	82.2	68.28	27.71	26.34	150.44	21.42	77.05
801.641	78.75	47.94	41.42	67.77	22.96	13.51	104.62	70.71	74.11	62.08	26.13	29.52	138.57	16.45	77.19
801.946	77.44	49.58	53.31	71.88	22.69	19.22	107.2	65.21	77.15	63.49	28.39	31.63	143.97	22.54	75.16
802.252	79.13	52.87	50.15	70.33	19.01	18.48	101.87	65.82	77.42	62.2	29.44	27.79	133.11	19.99	68.34
802.557	78.74	51.2	53.41	68.44	22.54	19.81	105.01	63.46	79.61	62.19	27.3	32.17	139.43	23.39	71.29
802.862	81.74	54.25	57.72	74.82	28.69	32.24	107.53	70.58	79.1	70.9	38.83	37	141.03	22.91	82.01
803.167	83.12	54.13	54.61	72.9	26.48	26.12	104	75.92	84.13	68.29	41.12	38.71	141.42	26.35	78.13
803.473	81.76	43.82	46.14	68.45	18.93	8.74	111.79	69.53	83.54	62.57	26.35	26.98	149.25	11.4	70.34
803.778	86.51	62.82	60.85	78.94	38.54	33.03	111.16	78.67	86.88	73.59	39.49	42.58	144	24.61	80.44
804.083	74.53	55.84	50.64	63.22	22.11	21.5	99.69	64.25	80.95	64.66	27.88	29.85	140.43	20.26	73.38
804.388	74.77	54.53	55.88	67.1	26.46	27.27	107.19	67.8	83.5	66.69	35.84	31.43	134.28	27.64	76.51
804.693	72.37	51.62	55.09	68.01	32.88	27.94	92.29	66.37	73.55	63.63	37.47	38.9	117.51	29.58	71.35
804.998	81.31	52.46	50.53	69.78	30.88	22.72	101.62	70.07	79.62	67.9	35.37	34.3	132.61	24.07	71.14
805.302	78.47	55.51	56.42	73.29	31.24	28.54	97.91	65.99	79.93	65.5	36.47	35.76	129.76	26.84	75.48
805.607	76.54	47.36	50.25	67.04	24.07	25.8	99.99	67.86	76.71	68.63	33.38	36.39	134.24	22.24	75.96
805.912	73.17	44.54	47.42	67.06	24.96	23.34	99.51	60.56	78.1	64.51	28.37	31.43	129.79	18.36	72.12
806.217	87.38	60.38	53	76.91	29.43	26.72	103.71	65.97	83.21	66.51	36.05	38.15	141.67	26.7	76.74
806.521	80.02	55.49	51.48	69.48	27.36	25.73	102.43	66.37	79.34	71.37	31.22	34.26	137.68	22	75.23
806.826	89.01	55.87	50.35	75.75	22.1	21.35	109.13	75.27	85.75	66.83	27.4	36.5	157.25	18.65	83.4
807.13	73.73	44.35	43.72	60.79	24.16	20.62	93.9	65.23	78.29	59.52	28.61	31.96	134.75	13.71	66.93
807.435	80.92	45.04	49.2	70.75	22.42	19.33	103.04	62.92	66.59	64	23.52	28.81	139.22	19.02	72.52
807.739	92.93	56.97	61.03	83.21	31.72	26.74	117.89	76.44	88.25	76.39	34.78	36.31	162.8	22.39	89.86
808.044	81.61	50.99	50.68	71.33	25.29	21.17	106.53	63.92	86.35	64.03	29.35	34.68	130.61	19.21	75.54
808.348	84.99	58.54	59.06	75.66	28.45	29.72	110.61	71.83	87.57	71.45	35.71	37.15	138.36	20.88	79
808.652	84.37	50.72	55.59	72.2	25.07	25.11	106.5	64.24	89.99	64.61	35.89	39.23	142.46	21.24	74.92
808.956	72.43	49.21	43.56	64.36	20.23	16.87	96.43	56.57	74.37	61.44	30.2	27.36	119.46	14	66.09
809.261	77.88	51.44	50.94	65.05	25.56	16.96	99.17	62.81	72.85	61.34	25.61	31.61	132.81	21.98	74.4
809.565	74.63	48.39	43.77	64.53	21.38	11.14	98.14	69.05	82.5	61.51	29.65	29.56	138.6	17.96	67.11
809.869	78.4	49.12	52.9	68.25	28.36	19.95	104.65	63.98	80.65	63.08	30.51	34.36	143.82	19.96	76.33
810.173	85.43	50.83	57.11	65.95	26.43	24.99	96.21	68.79	78.42	64.02	30.71	37.33	131.47	24.5	69.21
810.477	78.25	53.23	50.39	67.99	18.73	18.6	106.6	63.32	80.7	69.35	30.51	30.34	139.7	23.01	73.95
810.781	80.52	52.23	53	67.32	30.68	33.29	105.72	65.17	80.59	65.09	33.54	33.78	131.49	29.05	77
811.084	93.31	58.25	56.48	86.38	38.27	32.62	118.73	72.59	92.41	74.67	40.74	44.72	160.42	34.62	87.46
811.388	89.25	58.94	59.82	72.25	28.38	25.08	122.78	73.3	90.78	74.49	35.23	34.98	156.2	30.73	81.79
811.692	75.11	50.84	50.08	67.93	24.82	22.96	93.05	58.68	76.75	62.89	31.57	32.81	127.91	22.77	65.75
811.995	76.98	54.57	54.42	71.64	31.85	27.07	101.98	72.79	79.43	60.93	28.54	40.62	136.43	23.45	72.75
812.299	84.79	55.94	56.93	80.42	32.15	36.89	119.64	71.35	84.5	78.19	42.1	42.15	152.2	32.89	84.13
812.603	85.23	60.02	60.9	78.71	27.38	23.81	108.54	67.62	87.08	68.93	29.74	31.86	145.69	22.08	75.53
812.906	80.3	44.33	44.3	63.18	9.7	11.49	99.77	68.82	75.77	56.29	21.37	24.57	139.06	7	64.71
813.21	76.94	43.91	50.59	68.85	22.99	18.89	103.54	60.93	76.01	63.34	26.73	31.51	137.67	24.09	71.41
813.513	83.16	57.6	60.58	72.6	32.49	31.27	101.93	71.71	79.69	67.7	38.11	37.01	125.27	30.27	76.57
813.816	71.19	40.33	49.42	67.14	26.86	23.29	103.74	65.32	76.48	58.75	29.24	32.59	125.47	20.67	73.67
814.12	79.33	55.3	53.61	68.89	32.82	33.59	100.59	68.72	84.73	65.7	38.33	45.39	138.31	26.42	76.9
814.423	79.39	56.45	53.72	73.77	29.39	25.98	104.48	72.28	80	66.69	34.48	40.24	136.77	28.9	76.73
814.726	82.8	54.98	57.14	77.07	26.8	32.59	111.37	74.69	91.78	80.01	36.38	39.59	147.94	29.71	78.94
815.029	73.99	47.75	46.37	69.6	21.81	18.59	96.18	65.84	76.73	60.66	21.64	27.5	133.86	22.73	70.61
815.332	99.81	65.01	65.8	89.24	34.55	26.43	123.36	77.15	96.89	79.08	36.72	45.64	157.97	30.64	84.2
815.635	76.58	43.22	41.61	59.9	21.66	22.01	92.8	64.44	69.64	60.92	23.05	29.97	128.66	14.65	69.37
815.938	78.55	52.41	54.94	68.2	27.24	20.53	107.91	68.15	79.76	60.57	31.16	36.94	142.63	19.08	72.96
816.241	75.14	50.91	46.63	65.49	31.8	27.79	97.71	58.76	79.57	67.29	39.03	38.28	121.72	28.1	66.06
816.544	79.35	54.67	56.53	76.7	38.8	34.3	107.72	73.05	82.54	69.17	44.63	42.68	135.91	37.22	77.42
816.847	70.95	50.39	46.71	65.83	20.39	19.9	92.73	59.36	70.11	60.85	28.33	39.11	117.65	20.47	63.11
817.149	69.21	49.24	50.9	66.35	27.39	23.92	101.06	68.54	76.81	61.51	30.69	40.19	131.05	23.46	73.68
817.452	75.2	47.59	53.45	69.97	25.2	27.71	102.63	61.97	79.1	69.76	37.39	39.27	136.73	29.89	76.46
817.755	77.65	48.87	51.05	69.2	28.03	24.39	102.15	67.94	77.72	63.41	30.33	31.9	130.56	20.64	75.26
818.057	85.85	56.88	54.87	75.24	21.97	27.91	114.55	73.2	82.03	75.87	34.89	33.28	154.01	18.91	85.43
818.36	80.01	55.3	53.85	71.92	33.91	27.46	105.14	71.06	88	72.7	40.81	37.43	136.58	25.3	79.64
818.662	70.97	44.36	48.87	57.82	28.76	26.59	83.1	54.53	68.76	58.89	36.96	33.79	109.69	24.68	61.44
818.965	74.84	47.05	52.47	68.27	27.99	20.28	103.03	60.57	71.1	63.07	29.75	32.49	132.77	24.5	72.35
819.267	75.37	52.82	45.74	69.79	23.05	27.46	97.48	62.92	74.71	60.49	30.36	28.19	131.44	24.2	72.77
819.569	68.49	46.84	41.52	61.59	16.73	11.95	94.57	54.83	70.71	55.91	23.36	25.23	129.13	11.85	72.58
819.872	74.6	47.77	48.68	69.19	25.1	14.59	98.89	66.42	81.74	64.1	36.54	27.85	142.43	19.66	71.7
820.174	81.65	51.58	51.77	70.09	27.81	23.45	99.47	65.67	76.26	65.81	30.84	36.92	131.26	24.82	73.09
820.476	80.4	47.16	50.57	76.99	25.68	24.99	105.69	65.93	80.54	65.18	37.47	35.51	139.76	22.29	71.49
820.778	77.7	52.54	50.47	69.14	26.78	24.47	98.65	61.67	79.6	61.94	33.86	33.44	132.36	23.76	75.67
821.08	72.38	46.29	51.18	68.62	28.09	24.91	93.2	60.25	73.8	62.03	34.66	36.35	126.46	24.04	70.37
821.382	70.99	44.99	49.16	69.45	27.18	24.82	96.6	60.49	71.09	62.41	32.49	36.35	120.92	24.91	70.4
821.684	75.96	46.38	47.37	69.71	27.82	21.81	97.72	61.62	73.98	61.7	31.35	35.72	126.2	25.14	73.34
821.986	77.32	46.72	46.86	71.15	25.19	19.55	97.53	60.67	71.37	60.2	29.22	30.49	130.06	21.86	71.63
822.288	81.95	49.03	50.16	78.11	25.39	20.71	108.57	64.1	76.04	65.03	31.23	33.24	140.49	23.17	79.05
822.589	84.87	51.52	51.77	78.5	26.75	21.63	109.84	65.91	78.76	66.85	31.96	34.61	144	24.57	81.34
822.891	90.59	57.93	57.1	83.53	30.69	25.73	115.4	71.46	84.21	71.78	36.67	38.52	153.3	28	87
823.193	93.54	59.76	59.18	85.27	31.46	25.35	122.55	72.43	87.64	72.91	36.97	38.93	160.93	29.49	88.75
823.494	92.2	59.96	59.81	83.77	32.47	26.39	121.59	72.36	86.33	72.46	37.7	40.09	159.98	29.06	91.19
823.796	93.13	60.66	60.47	83.21	29.9	26.32	126.81	74.02	89.88	74.33	36.71	39.14	166.56	26.77	91.26
824.097	90.83	59.86	60.2	80.91	31.15	27.07	122.77	71.3	86.02	70.95	36.88	39.61	161.8	28.58	89.43
824.399	92.91	60.65	61.38	82.3	31.14	26	127.75	71.64	89.02	74.77	38.4	39.37	168.79	28.61	94.79
824.7	92.3	59.93	60.82	81.12	30.44	25.88	124.79	72.81	87.64	73.2	35.07	39.62	165.87	28.85	93.84
825.001	93.93	62.38	63.01	81.56	30.37	28.26	128.78	73.7	91.49	75.28	36.76	40.49	169.37	27.79	95.67
825.303	88.28	59.39	58.04	78.79	28.77	22.29	124.28	72.06	84.79	72.59	35.36	37.97	163.01	24.59	88.79
825.604	82.43	53.26	54.41	72.42	24.7	21.17	112.7	65.41	81.71	66.84	31.41	34.54	152.94	20.42	81.75
825.905	86.93	56.18	56.25	76.61	28.21	26.53	115.43	69.57	83.98	70.81	31.91	39.95	153.65	24.04	85.83
826.206	83.03	54.84	55.25	72.97	28.47	25.33	112.67	66.04	81.04	67.65	31.45	34.49	147.98	25.92	81.94
826.507	77.41	50.45	50.48	69.81	25.18	23.86	107.27	61.25	77.63	65.02	27.9	34.31	137.7	20.83	76.73
826.808	77.39	48.61	47.83	71.56	24.61	19.12	106.24	62.03	75.96	64.84	29.29	31.62	137.8	20.17	78.37
827.109	82.96	52.31	54.5	78.34	27.63	23.67	110.93	65.97	82.46	65.6	35.04	36.5	147.95	26.73	78.96
827.41	81.3	53.71	52.82	77.82	28.34	23.49	109.83	66.23	78.32	67.8	33.31	35.29	140.89	25.18	79.93
827.711	87.98	57.54	57.41	82.58	29.26	25.15	117.47	71.29	84.78	71.58	36.36	38.09	153.73	27.86	84.88
828.012	94	65.94	63.14	88.1	35.13	29.18	126.62	78.94	91.15	77.26	40.29	43.47	161.83	31.72	95.78
828.312	88.98	57.68	57.88	78.46	31.95	25.06	115.37	73.1	84.66	70.75	35.49	41.51	157.05	29.3	87.81
828.613	93.73	63.51	60.72	81.4	29.9	24.7	123.51	73.21	88.8	73.34	35.97	41.42	165.2	28.56	92.2
828.914	83.87	56.17	57.04	75.92	30.18	25.85	119.02	72.5	82.83	71.44	32.46	36.84	158.73	25.49	86.88
829.214	90.19	61.88	60.82	77.8	34.57	31.25	116.96	72.81	86.33	73.27	40.5	42.52	156.19	28.56	88.56
829.515	90.72	61.68	60.09	77.59	31.23	26.13	119.24	73.45	89.21	73.11	39.15	39.13	164.81	30.33	87.86
829.815	78.58	56.32	55.2	69.22	28.36	23.99	113.73	64.35	81.79	63.63	29.81	35.12	144.36	23.5	83.62
830.115	88.7	65.53	58.4	78.09	33.15	28.74	128.66	76.11	95.14	75	40.9	42.6	167.33	30.14	92.68
830.416	85.39	56.24	59.81	75.71	24.44	18.96	123.88	73.07	85.73	73.93	41.87	39.98	160.38	24.13	83.21
830.716	73.03	49.27	53.75	65.18	23.82	21.39	107.03	59.98	81.35	62.48	29.07	31.18	142.3	22.85	74.89
831.016	91.92	63.54	62.16	80.82	27.62	29.54	116.84	78.72	89.63	79.15	49.9	46.36	153.73	34.58	86.56
831.316	76.78	52.5	50.85	65.5	30.3	23.36	102.39	65.03	74.54	66.69	34.46	31.34	134.18	17.68	75.31
831.617	76.12	51.92	52.43	70.26	30.17	22.88	92.09	62.52	73.31	62.72	35.53	31.77	123.64	20.78	71.73
831.917	82.23	51.69	60.37	75.73	38.32	30.3	105.65	71.31	82.94	72.29	37.05	38.12	139.08	34.6	86.67
832.217	68.69	47.4	44.61	66.04	27.93	23.74	96.8	63.6	68.05	56.05	32.34	29.85	122.53	21.02	62.78
832.517	78.84	52.06	51.29	70.28	32.14	31.28	102.27	65.88	78.51	59	38.32	40.09	130.56	31.4	71.12
832.816	82.95	45.99	50.69	70.29	31.31	24.53	94.48	60.19	78.84	63.02	30.78	38.55	129	29.51	70.53
833.116	79.27	48.58	53.74	69.66	28.34	23.96	100.46	63.73	76.2	58.89	33.95	31.73	128.03	26.66	72.12
833.416	69.88	46.9	50.73	62.61	29.4	25.49	87.76	56.06	68.95	58.9	27.37	31.16	110.48	24.37	69.08
833.716	75.53	44.96	48.97	70.75	27.05	25.66	100.56	62.62	73.1	56.41	32.13	34.32	128.85	21.83	67.18
834.015	84.01	46.45	48.87	71.67	21	22.05	101.95	61.4	75.08	62.7	31.2	31.86	135.52	19.66	71.16
834.315	85.87	53.86	53.26	74.55	24.9	23.44	110.07	66.03	82.22	72.04	32.63	36.68	145.68	23.68	81.07
834.615	83.23	55	54.05	74.08	30.58	26.19	101.94	67	79.1	69.07	36.07	38.65	132.54	27.86	76.56
834.914	83.78	56.69	54.13	76.45	32.21	28.57	108.19	69.32	80.36	66.96	34.48	36.52	146.53	26.19	79.49
835.214	81.83	55.24	52.13	77.13	25.89	21.57	108.31	66.71	80.74	68.18	29.31	32.32	153.08	21.08	79.24
835.513	85.8	51.88	56.11	70.63	19.93	19.27	117.94	64.61	79.43	64.97	30.93	34.55	158.89	18.73	79.61
835.812	89.11	61.64	59.45	76.89	33.82	26.98	117.64	76.73	88.56	69.61	31.27	37.89	158.2	26.1	83.96
836.112	86.93	59.08	64.39	79.37	39.84	27.93	118.3	75.59	86.2	73.95	39.88	43.96	154.28	29.63	91.29
836.411	83.66	49.38	54.29	74.4	26.86	19.33	123.28	73.47	89.04	71.59	30.27	37.75	164.72	17.6	87.12
836.71	74.86	43.13	47.42	68.41	26.64	17.18	106.15	59.72	76.57	69.89	30.15	26.23	148.49	19.76	78.01
837.009	76.41	52.31	60.86	72.38	28.43	27.46	114.11	67.8	84.37	66.92	31.69	42.75	154.73	17.98	76.25
837.308	80.91	53.49	53.96	69.64	31.99	30.23	102.79	62.32	67.77	63.36	38.52	38.96	124.9	29.16	74.41
837.607	72	45.15	39.02	65.53	19.5	19.08	103.18	60.1	76.84	64.17	30.12	33.47	137.15	24.26	71.09
837.906	79.09	52.83	50.71	69.58	16.76	13.89	109.64	60.52	70.45	73.1	27.22	28.59	144.6	14.43	72.73
838.205	66.86	34.93	39.98	56.12	9.71	12.58	91	50.93	64.32	49.76	19.56	20.24	131.81	10.58	53.26
838.504	69.56	52.65	56.59	70.69	19	29.85	95.23	63.99	74.23	55.2	41.27	35.9	121.17	34.95	69.31
838.803	80.16	56.74	63.29	65.13	28.71	25.34	99.18	54.98	79.4	62.06	28.43	31	137.38	21.34	73.7
839.101	72.4	47.38	47.02	65.34	28.42	22.4	107.72	56.76	78.85	64.28	24.6	31.88	127.41	29.62	63.64
839.4	78.76	53.87	54.95	76.76	31.38	30.92	94.37	66.98	72.15	71.34	37.2	36.42	132.27	30.8	74.82
839.699	85.39	53.79	57.44	78.2	23.22	18.09	103.74	61.47	76.54	67.22	24.68	26.05	159.95	21.07	81.26
839.997	71.58	46.32	54.47	64.14	33.99	27.49	110.42	68.08	71.08	70.46	30.07	40.33	129.26	24.28	73.82
840.296	84.94	44.59	54.22	72.05	28.08	19.31	117.19	62.77	82.19	66.01	22.96	31.57	148.74	22.58	85.81
840.594	76.58	52.81	47.21	63.16	31.25	12	96.57	54.22	75.47	64.18	25.91	31.49	133.28	16.63	67.84
840.893	69.75	43.64	50.28	66.86	24.25	18.72	109.55	66.12	77.75	61.39	35.3	37.41	137.66	27.44	75.3
841.191	79.91	54.66	57.1	68.86	32.44	33.06	111.62	69.15	80.92	61.01	32.05	35.26	140.9	30.04	84.7
841.489	69.92	50.94	50.66	65.95	38.27	25.7	88.8	55.68	76.19	58.23	34.4	35.02	124.26	27.76	65.96
841.788	75.74	50.66	51.07	70.11	32.4	30.41	99.61	64.31	76.84	58.39	32.09	38.65	125.56	25.32	69.26
842.086	88.27	50.86	54.5	71.71	25.29	30.55	113.51	74.54	81.59	71.4	28.29	29.28	156.28	25.99	82.35
842.384	91.6	55.09	53.62	79.13	28.78	34.51	131.8	71.62	79.58	71.87	39.86	39.27	168.84	34.03	89.2
842.682	76.32	43.71	50.54	67.6	14.43	25.24	106.74	52	95.41	65.52	33.75	18.87	152.55	6.78	76.28
842.98	72.39	41.03	40.74	71.32	21.99	15.45	84.46	61.59	69.71	50.55	31.4	32.22	118.49	26.29	63.98
843.278	58.91	36.02	52.23	61.34	27.39	25.06	106.05	65.81	87.16	59.82	21.61	20.1	147.88	19.11	69.4
843.576	93.15	66.36	72.34	77.84	36.15	50.05	130.54	90.89	108.99	87.91	43.52	52.94	167.12	32.88	98.69
843.874	63.61	46.3	51.9	54.96	20.55	26.62	88.87	66.06	71.55	56.16	27.86	25.7	120.7	0.27	54.89
844.172	46.29	33.02	46.4	46.03	3.78	-0.01	90.55	60.71	57.24	36.88	15.96	15.87	123	2.73	52.27
844.469	73.67	46.75	47.41	69.72	25.79	23.67	116.15	77.7	99.54	75.81	43.18	31.22	151.67	23.59	95.66
844.767	73.07	42.76	43.14	54.55	16.01	22.33	84.27	62.25	74.92	66.55	16.57	25.85	127.68	19.83	54.04
845.065	64.44	52.92	49.43	65.77	27.21	31.78	98.67	49.27	64.4	55.51	26.49	21.28	130.63	26.21	56.65
845.362	61.33	43.16	50.88	69.77	21.78	12.47	114.11	66.84	61.4	77.28	22.2	23.99	157.17	27.16	90.95
845.66	53.78	59.65	52.31	53.53	27.38	17.48	84.43	56.86	60.22	60.83	37.58	34.91	113.57	21.39	58.36
845.957	94.19	47.85	92.97	63.87	5.42	-4.48	146.14	100.69	115.83	121.91	30.19	30.7	243.95	20.04	112.85
846.255	64.87	35.92	49.56	53.75	22.8	32.98	78.04	43.05	59.87	56.01	38.06	27.79	101.88	21.69	64.4
846.552	73.29	52.23	42.52	76.67	14.02	14.4	100.74	66.76	82.37	51.04	26.29	32.73	128.4	8.9	63.18
846.849	52.39	35.64	29.92	39.11	2.17	18.09	72.92	40.42	63.46	36.7	21.18	14.64	120.9	6.01	52.11
847.147	64.49	57.12	55.92	39.75	27.09	14.06	88.22	68.44	75.03	52.44	38.02	30.51	114.46	24.25	63.38
847.444	56.82	31.77	29.12	45.17	16.27	4.71	96.86	42.94	72.67	60.94	6.24	27.49	125.3	12.32	46.82
847.741	85.11	50.06	65.33	65.89	-2.69	23.7	139.37	42.9	85.21	26.65	8.06	7	162.17	3.05	51.49
848.038	68.35	61.67	42.45	47.66	17.74	-1.9	94.78	38.72	80.69	65.56	25.47	12.29	140.62	15.88	69.85
848.335	79.63	40.03	39.17	77.8	28.84	7.06	102.5	68.46	87.99	53.35	33.28	46.78	141.22	23.39	53.92
848.632	75.44	48.04	25.86	57.49	25.73	24.31	76.89	42.26	58.94	52.18	30.96	18.57	114.92	22.34	53.16
848.929	48.03	24.93	5.5	25.43	-26.93	-14.59	68.49	25.05	27.68	47.54	-11.55	4.98	84.86	-24.44	28.33
849.226	73.79	53.99	51.74	68.86	16.35	56.35	124.21	61.27	60.87	68.26	20.33	34.79	132.95	13.16	57.36
849.523	68.17	43.13	57.71	37.93	8.4	16.45	82.13	38.97	77.22	56.11	31.22	26.5	117.91	21.65	49.93
849.819	44.1	50.22	50.19	62.17	33.27	25.26	76.92	38.44	64.12	60.81	21.62	14.69	95.14	21.52	65.08
850.116	37.37	26.3	38.62	35.05	-9.03	10.74	81.17	29.74	44.74	38.01	11.52	11.41	113.93	-9.26	34.96
850.413	67.93	53.19	49.02	58.99	30.18	28.36	84.21	58.03	71.27	64.31	21.85	31.68	130.02	-2.53	63.14
850.709	77.34	52.62	51.7	56.52	-5.31	20.67	101.5	52.77	71.28	73.95	28.76	28.77	156.88	11.65	73.83
851.006	36.82	58.15	52.69	62.51	23.44	24.1	119.02	47.67	77.4	72.11	17.07	11.68	153.75	-9.93	51.75
851.302	69.83	71.98	47.27	70.51	17.6	37.92	105.56	58.67	86.24	97.23	11.87	29.97	146.2	21.95	85.75
851.599	61.54	41.14	68.46	65.16	17.26	42.36	72.2	44.58	59.89	70.6	29.25	37.1	143.13	21.14	63.2
851.895	68.78	40.97	52.23	55.67	13.66	35.21	104.57	56.47	71.48	76.96	32.89	27.9	124.53	33.67	54.91
852.191	74.68	65.76	76.09	70.36	32.96	30.99	107.12	83.28	86.82	91.68	29.35	46.9	152.28	28.22	83.87
852.488	82.55	54.09	59.72	95.08	28.97	20.91	156	77.54	100.86	95.49	30.92	41.94	190.67	40.64	69.54
852.784	28.95	6.5	0.94	9.3	-56.94	-32.21	99.29	6.91	33.89	38.19	-16.38	-11.99	131.44	-31.5	19.21
853.08	67.84	52.07	25.69	45.38	2.48	2.13	81.21	59.85	53.78	63.12	20.37	17.77	119.74	10.64	49.03
853.376	81.07	46.83	52.89	61.94	21.74	19.96	88.52	68.4	79.87	67.41	19.36	20.98	127	4.85	74.55
853.672	99.3	54.73	81.36	64.38	24.49	34.94	104.8	40.51	101.1	63.9	27.81	20.48	138.33	18.75	51.62
853.968	91.7	60.21	55.66	82.2	49.81	39.64	78.47	64.7	78.25	73.57	30.92	47.54	130.85	11.35	72.58
854.264	53.72	14.38	6.22	30.58	-10.05	-5.55	63.02	10.76	45.42	43.31	1.96	-21.47	87.59	4.39	26.87
854.56	81.59	53.86	45.66	71.17	17.32	32.99	83.91	71.3	75.67	64.41	33.03	29.34	107.47	30.09	56.55
854.855	59.17	28.43	35.37	52.73	12.93	13.57	69.95	50.02	53.42	60.36	31.99	12.07	108.75	8.82	63.51
855.151	83.37	67.45	46.71	50.87	35.38	36.8	108.1	51.88	74.75	55.29	24	31.86	136.48	1.87	74.03
855.447	86.12	77.63	64.52	99.21	10.61	32.02	130.32	71.83	90.14	72.55	31.15	47	164.39	10.27	73.92
855.743	61.16	36.11	33.6	44.04	14.54	21.28	97.66	43.59	58.34	48.94	30.97	14.13	118.02	25.91	79.47
856.038	33.52	28.5	25.4	42.08	-3.04	-6.45	94.85	16.56	63.7	62.68	-2.61	3.83	155.72	-21.16	48.37
856.334	37.08	15.95	7.97	38.59	-16.03	-27.9	88.09	37.77	53.42	24.64	-18.06	12.95	127.17	-51.35	19.29
856.629	83.53	59.98	32.84	35.58	28.27	-5.89	96.65	55.14	78.8	38.43	21.09	22.9	109.57	16.72	46.6
856.925	70.75	67.02	73.98	71.76	50.64	41.09	118.91	59.43	92.57	77.23	42.26	56.58	143.02	33.55	80.36
857.22	85.1	46.06	69.63	50.35	9.48	36.43	100.29	45.87	104.67	66.49	29.66	44.32	143.55	3.18	60.72
857.515	60.61	38.93	60.94	60.81	15.29	21.89	103.02	78.54	56.35	58.87	26.45	48.85	139.41	19.03	70.52
857.81	88.23	62.23	69.23	84.43	42.54	32.85	103.91	72.61	75.99	76.78	54.04	39.71	126.73	53.32	77.53
858.106	59.51	46.21	31.52	69.1	-13.81	6.87	112.53	86.57	74.85	51.64	15.87	31.91	177.65	10.38	83.16
858.401	48.39	43.69	21.55	43.81	1.72	7.06	84.09	49.16	64.93	42.36	-7.33	29.63	110.48	13.73	39.66
858.696	75.42	65.44	73.39	65.57	24.8	37.67	113.47	77.67	79.28	61.79	34.42	31.29	138.73	24.83	67.81
858.991	63.62	60.05	60.49	60.51	33.3	41.49	88.39	54.37	74.19	73.05	39.36	50.35	124.21	40.2	66.21
859.286	58.5	47.88	57.39	57.78	34.33	25.16	64.23	54.04	53.88	63.67	34.73	47.84	90.42	3.57	49.57
859.581	54.89	43.62	29.8	38.58	9.33	38.74	61.8	57.14	57.17	67.05	37.72	48.7	124.82	29.08	61.83
859.876	60.89	68.38	58.21	73.25	30.18	48.81	87	61.88	66.98	61.39	29.74	46.5	134.71	52.17	64.12
860.17	59.91	54.13	46.05	64.04	32.12	36.93	108.43	46.38	57.8	48.84	15.65	24.86	112.07	26.6	63.49
860.465	45.91	21.54	25.7	25.72	6.51	30.25	52.6	24.51	38.12	18.52	8.98	-3.22	101.03	-7.58	42.86
860.76	72.58	45.04	45.95	52.51	26.87	27.46	85.94	40.98	83	53.46	36.3	32.98	121.25	21.9	68.72
861.054	96.53	57.07	61.01	80.29	-18	-10.27	195.91	89.71	104.11	83.12	65.86	8.68	257.56	22.93	108.17
861.349	47.73	36.62	42.69	34.21	18.06	11.01	78.84	49.63	47.27	56.92	21.68	25.01	101.94	17.02	64.4
861.644	69.99	28.4	57.51	38.46	6.41	-3.14	106.2	66.74	79.27	54.42	1.69	12.16	119.21	3.88	63.1
861.938	63.51	37.2	49.21	59.03	33.3	32.22	71.47	56.97	52.39	52.26	25.49	35.88	94.87	39.69	56.31
862.232	70.82	36.03	40.58	46.21	34.72	30.23	82.16	58.42	51.84	54.26	12.01	35.54	124.71	16.93	59.79
862.527	50.82	5.35	32.28	17.97	-17.05	-1.71	89.5	45.14	63.06	32.63	-4.69	15.39	113.77	10.99	36.57
862.821	57.63	-3.34	51.45	31.62	23.13	6.9	115.63	20.69	35.68	33.25	20.08	14.62	112.69	10.96	42.6
863.115	45.29	54	41.96	45.19	44.51	14.82	75.36	54.6	44.49	62	25	39.85	108.49	11.89	45.35
863.409	59.9	38.99	47.11	54.41	12.54	24.46	93.69	57.68	61.73	53.52	28.01	34.3	93.05	8.17	48.79
863.704	56.31	32.83	38.89	61.45	25.64	26.96	88.09	57.9	58.04	64.66	33.22	34.44	97.07	20	38.83
863.998	72.54	46.1	40.05	41.57	32.83	50.98	89.45	72.46	53.52	62.84	63.86	59.35	110.83	37.37	72.59
864.292	72.69	39.19	54.28	36.52	29.51	31.52	88.36	49.14	70.99	62.75	37.49	43.05	113.07	19.57	63.54
864.586	31.11	25.65	8.9	41.02	6.67	8.26	62.21	29.99	38.74	39.56	10.48	9.18	116.79	9.89	52.96
864.88	72.99	51.51	48.15	59.12	38.13	46.86	97.39	47.07	53.5	46.69	38.53	18.73	106.72	27.45	71.45
865.173	57.49	55.39	29.49	30.53	24.96	13.98	87.98	37.61	51.07	56.94	9.41	32.52	104.57	19.36	48.61
865.467	65.28	40.12	46.41	57.31	15.17	26.99	80.61	58.99	67.02	60.29	35.88	32.3	97.68	22.24	39.53
865.761	86.21	51.03	75.45	62.75	47.97	6.18	113.02	71.9	84.67	73.84	29.73	36.6	134.86	20.42	77.48
866.055	78.21	54.16	66.36	48.18	44.39	44.17	129.62	44.31	86.3	61.06	10.68	44.65	154.96	3.91	76.47
866.348	59.74	20.78	39.88	38.6	16.41	32.22	74.99	22.9	47.79	31.45	28.33	10.14	85.44	19.64	39.82
866.642	84.12	40.59	61.52	50.76	30.73	52.88	95.53	52.24	92.92	81.78	45.24	50.72	116.79	36.66	65.13
866.935	40.52	9.85	22.8	25.93	-11.39	-19.38	66.86	20.47	60.26	49.86	-14.31	-12.82	97.28	-8.7	36.9
867.229	80.95	53.6	44.24	60.14	32.91	28.07	90.99	71.2	60.64	63.36	49.17	32.37	122.06	23.04	42.79
867.522	57.32	56.82	55.92	58.2	24.96	14.94	96.16	66.25	79.83	64.4	32.48	44.76	110.11	20.05	58.66
867.815	56.33	63	53.5	54.07	34.42	43.18	91.6	70.28	55.32	67.69	33.1	27.84	107.78	1.91	62.2
868.109	118.58	141.5	132.6	50.05	84.78	-12.3	198.69	118.28	161.23	99.86	24.56	56.5	288.25	60.82	144.15
868.402	51.48	40.33	27.11	64.07	16.29	10.75	105.94	58.85	82.66	51.95	12.14	33.08	118.04	8.24	67.55
868.695	128.94	68.33	62.45	68.9	-6.73	-15.07	144.68	77.24	139.35	86.79	47.38	41.97	214.03	-24.58	114.07
868.988	76.89	61.34	42.76	51.03	56.17	29.26	79.17	53.75	63.16	62.21	50.54	50.55	98.15	41.61	72.2
869.281	51.83	45.06	35.56	70.18	10.71	7.56	99.77	64.64	75.42	47.42	17.79	8.18	151.16	10.19	49.33
869.574	53.2	21.48	19.59	43.38	-15.11	-19.35	62.51	20.85	62.37	42.77	3.46	14.34	113.41	-4.6	56.52
869.867	341.03	132.69	29.36	134.36	-115	-314.1	661.54	68.85	506.28	-7.31	-120.64	-323.59	1026.41	-348.46	-90.77
870.16	89.04	38.74	67.12	59.11	-2.79	6.77	107.25	26.61	82.62	51.28	8.36	3.09	174.26	16.16	48.33
870.453	-126.18	-201.18	-175.55	-77.82	-440.82	-443.82	70.55	-266.82	-96.27	-233.55	-311	-254.18	535.82	-530.73	-141.45
870.746	36.72	30.34	32.61	51.82	32.82	-0.92	74.73	39.08	41.17	43.31	11.1	19.86	84.25	-0.24	54.94
871.038	43.51	34.92	31.04	17.27	-24.97	-17.86	97.94	-0.32	56.34	31.07	6.95	-5.52	107.72	-9.78	31.81
871.331	83.44	7.72	21.13	24.76	-41.7	-35.66	67.85	36.89	85.77	9.06	34.62	-13.8	129.79	-49.11	114.25
871.624	56.97	31.08	33.68	36.37	-1.34	5.14	104.45	35.72	38.59	42.35	11.02	2.37	114.09	4.52	36.08
871.916	73.73	47.72	54.34	55.59	34.9	44.37	75.35	58.17	71.3	60.19	48.74	51.67	85.26	34.39	56.15
872.209	-1.67	-21.18	-24.12	22.65	-57.97	-58.69	143.81	15.3	34.7	9.99	-54.37	-39.95	178.53	-45.61	90.52
872.501	19.3	-0.86	-6.16	5.33	-49.14	-20.57	122.29	48.23	51.67	-14.7	-16.85	-25.15	125.37	-26.74	6.43
872.794	52.12	86.65	81.62	54.98	46.03	15.68	112.43	49.18	68.81	60.99	45.23	47.18	161.46	1.96	83.43
873.086	78.49	53.42	55.3	54.45	3	26.54	108.81	34.45	67.08	68.78	26.24	41.66	121.36	34.2	77.51
873.378	77.73	60.99	45.98	48.17	18.33	32.81	104.43	54.81	81.51	63.57	20.53	19.31	135.09	5.26	56.69
873.67	38.43	6.45	1.66	7.01	-65.18	-70.19	81.84	5.48	32.99	-42.58	-59.49	-26.11	156.94	-63.87	62.59
873.963	39.77	22.07	57.8	51.11	2.16	-14.35	68.91	31.16	62.47	63.47	-7.77	1.36	114.46	2.63	45.31
874.255	61.77	45.82	34.64	44.71	34.27	24.97	59.31	37.15	55.24	52.93	26.19	31.71	83.41	30.83	44.42
874.547	-531.37	-1476.96	-460.29	-372.55	-2078.92	-3153.92	1290.2	-866.18	-103.43	-114.22	-2014.22	-1911.76	2732.35	-1920.59	29.41
874.839	84.07	57.78	50.19	59.77	35.91	31.63	120.45	85.55	60.44	84.11	42.05	36.17	170.95	44.47	118.06
875.131	124.87	76.58	69.3	97.81	59.08	52.44	128.82	94.89	124.98	100.91	86.82	75.52	185.74	76.28	122.43
875.423	62.54	42.79	63.32	55.06	35.19	30.91	80.82	59.6	89.91	74.47	51.92	36.78	108.75	35.6	52.38
875.714	57.28	37.34	46.34	26.21	29.2	22.33	86.38	28.85	60.72	52.64	20.03	35.23	115.28	18.71	56.77
876.006	62.03	65.42	56.97	50.72	33.34	6.79	79.7	62.08	64.04	78.99	22.9	34.96	146.55	-1.37	78.52
876.298	65.37	59.12	39.04	57.2	5.8	25.97	109.88	65.94	77.09	46.08	12	23.13	129.18	14.73	67.51
876.589	77.24	87.22	60.89	39.76	-55.88	-32.85	256.45	7.02	148.6	37.9	-50.27	-21.7	267.91	-45.45	92.72
876.881	3.69	42.88	15.85	65.46	-50.23	-59.43	100.57	5.43	67.21	35.58	-9.45	-1.89	160.25	7.92	68.83
877.173	100.51	54.53	65.61	75.8	1.61	37.72	95.08	40.09	52.73	44.13	35.55	3.7	160.2	34.12	64.69
877.464	176.18	131.33	86.56	183.12	49.82	59.05	279.2	134.5	147.86	167.81	34.65	25.43	314.92	65.98	153.87
877.755	71	32.28	63.39	55.81	41.81	5.75	96.71	59.29	93.78	34.99	12.29	11.61	150.98	-1.13	71.11
878.047	71	32.28	63.39	55.81	41.81	5.75	96.71	59.29	93.78	34.99	12.29	11.61	150.98	-1.13	71.11
878.338	71	32.28	63.39	55.81	41.81	5.75	96.71	59.29	93.78	34.99	12.29	11.61	150.98	-1.13	71.11
